time,AF3,F7,F3,FC5,T7,P7,O1
0.000,40.396,41.372,44.034,41.971,43.714,43.207,40.781
0.008,56.404,52.513,54.197,54.608,53.124,55.337,57.053
0.016,62.504,63.582,61.945,63.459,62.237,61.396,60.380
0.023,61.904,61.126,62.093,63.357,62.899,62.370,61.205
0.031,59.042,58.609,61.059,56.131,60.661,58.106,57.440
0.039,53.236,52.702,55.070,52.320,53.358,52.506,54.043
0.047,50.200,51.069,51.492,50.101,53.454,54.816,53.744
0.055,50.956,53.356,52.842,52.576,51.523,52.793,51.325
0.062,46.930,49.696,48.488,49.611,46.512,49.469,49.166
0.070,45.642,41.911,45.373,43.094,42.398,45.700,46.415
0.078,42.750,38.412,39.584,41.357,42.234,40.165,41.308
0.086,41.868,43.268,43.323,40.401,42.476,41.175,42.965
0.094,51.548,50.944,49.433,49.263,49.357,49.828,49.241
0.102,61.037,63.174,62.606,60.716,63.727,63.991,64.817
0.109,74.624,71.967,75.916,75.321,74.257,72.482,76.174
0.117,77.477,77.125,78.493,76.566,79.075,75.843,76.233
0.125,73.451,74.210,72.599,74.953,74.186,73.419,77.204
0.133,67.835,68.948,69.563,69.063,68.900,69.571,68.984
0.141,61.036,63.468,62.845,62.830,64.602,64.413,61.053
0.148,58.729,59.369,57.054,58.512,58.088,60.038,59.763
0.156,56.274,54.457,53.191,55.721,58.200,57.729,58.028
0.164,49.238,51.345,50.251,49.012,51.283,50.735,47.766
0.172,44.898,44.532,42.945,43.095,41.297,41.342,41.750
0.180,35.150,38.499,37.345,39.729,35.493,40.381,39.774
0.188,39.839,38.576,37.049,36.132,38.327,39.400,38.629
0.195,47.481,46.609,46.808,47.889,45.365,43.772,45.718
0.203,54.725,58.082,58.444,55.410,57.017,55.449,55.848
0.211,63.167,65.588,64.681,62.390,61.810,61.163,62.013
0.219,66.595,62.467,63.216,62.450,62.454,64.286,62.115
0.227,58.050,57.047,56.976,54.967,56.729,60.429,59.818
0.234,49.659,48.792,52.663,50.310,50.231,50.872,52.868
0.242,45.788,42.221,45.399,42.940,40.902,42.125,42.762
0.250,40.194,39.606,38.817,37.844,37.862,38.671,37.997
0.258,36.011,35.368,31.734,34.493,34.006,35.827,33.796
0.266,25.404,26.200,26.411,25.615,28.614,25.723,25.598
0.273,21.917,19.542,20.408,21.313,19.467,18.654,19.255
0.281,12.516,12.312,13.130,12.563,15.508,14.465,13.621
0.289,13.633,18.418,17.057,16.477,14.658,13.364,17.355
0.297,25.913,26.344,23.040,24.405,24.256,25.132,26.562
0.305,32.932,34.517,32.926,37.404,35.833,35.439,36.246
0.312,38.891,42.621,40.557,40.049,43.180,40.205,40.602
0.320,41.683,41.291,43.245,40.786,41.139,43.104,42.091
0.328,34.112,32.981,33.773,34.496,35.418,37.470,34.519
0.336,27.951,27.161,28.477,28.714,26.360,27.273,29.563
0.344,22.949,22.487,21.543,23.920,23.343,23.970,23.821
0.352,17.466,20.988,18.161,19.840,19.408,16.656,21.307
0.359,14.616,14.375,16.648,14.828,14.459,16.061,13.957
0.367,7.902,8.325,9.621,9.537,12.653,12.705,10.293
0.375,3.266,3.271,5.498,2.898,5.272,6.321,3.979
0.383,4.222,2.085,4.714,2.622,2.497,3.894,2.205
0.391,7.937,6.701,7.321,10.508,9.741,8.948,8.629
0.398,19.137,21.311,19.135,17.534,19.526,19.336,20.893
0.406,32.158,32.721,30.016,30.840,32.788,29.468,32.196
0.414,41.880,40.163,42.294,37.825,40.290,39.377,39.450
0.422,41.992,41.376,39.689,41.004,41.793,40.586,39.304
0.430,35.069,33.619,38.373,38.481,38.208,35.094,35.621
0.438,33.018,31.103,30.289,32.416,32.241,30.958,32.459
0.445,31.329,31.855,31.436,30.885,31.682,26.240,29.478
0.453,29.444,30.862,29.588,24.621,27.398,28.812,26.606
0.461,26.426,25.809,27.855,24.388,23.644,29.417,28.290
0.469,23.126,23.311,23.751,24.656,22.694,21.204,22.523
0.477,19.063,20.863,21.680,18.640,19.728,18.840,20.098
0.484,22.484,19.658,19.047,19.305,18.949,20.893,20.019
0.492,26.689,30.825,27.597,31.362,32.203,27.660,27.876
0.500,39.716,43.436,40.534,43.466,43.487,41.686,39.256
0.508,57.308,52.006,55.610,53.072,52.624,55.819,53.805
0.516,63.249,59.216,59.045,64.894,64.896,64.185,62.493
0.523,63.744,62.375,65.031,64.286,63.694,62.128,61.898
0.531,60.764,60.040,59.931,58.393,60.042,56.977,55.610
0.539,52.366,53.155,54.139,55.707,57.616,56.985,52.686
0.547,50.917,52.638,52.605,50.766,53.424,53.693,51.113
0.555,52.543,52.625,53.520,50.546,52.973,53.741,50.009
0.562,48.488,49.956,49.950,47.578,45.825,47.928,47.313
0.570,42.165,44.795,46.426,44.282,45.405,42.196,45.601
0.578,39.961,42.121,38.463,37.949,41.896,40.701,38.140
0.586,41.300,43.794,44.389,42.483,40.538,44.411,39.055
0.594,51.584,51.658,51.245,48.963,52.761,53.225,51.319
0.602,61.363,63.956,59.744,63.224,65.278,63.080,64.862
0.609,71.983,73.548,75.318,71.832,72.736,72.707,75.062
0.617,79.821,76.997,77.253,76.865,77.958,75.605,77.458
0.625,76.552,73.345,75.078,72.722,74.171,76.207,75.872
0.633,70.934,67.374,68.972,66.936,65.800,69.342,69.704
0.641,64.465,61.542,64.744,62.652,61.507,63.071,61.884
0.648,60.490,61.267,57.449,59.139,60.832,59.890,59.070
0.656,56.774,54.152,57.869,52.434,55.008,52.962,53.094
0.664,51.839,49.340,50.971,50.347,49.015,52.199,48.453
0.672,42.967,41.655,40.199,40.734,40.618,42.565,43.439
0.680,39.061,37.338,38.680,36.983,38.906,39.276,36.965
0.688,41.122,38.327,40.777,39.369,39.595,39.691,38.307
0.695,48.443,42.435,42.257,47.008,49.184,47.098,43.929
0.703,55.024,56.848,56.876,58.869,58.184,54.500,58.058
0.711,61.006,62.285,64.006,61.861,62.701,62.615,66.275
0.719,64.482,62.422,66.502,64.174,66.181,66.321,62.267
0.727,55.906,59.100,60.779,58.196,58.895,61.022,61.648
0.734,50.177,50.161,52.008,51.492,51.615,48.417,52.148
0.742,44.540,42.828,41.498,42.867,43.192,46.741,41.721
0.750,38.307,37.464,38.941,35.882,39.471,40.306,40.445
0.758,35.180,31.295,32.647,35.484,33.047,35.430,32.615
0.766,29.267,27.922,28.080,24.637,26.016,24.318,27.374
0.773,19.684,18.535,17.946,21.081,19.737,17.737,19.995
0.781,14.119,16.186,14.756,14.746,13.716,15.815,13.045
0.789,14.078,13.572,15.242,13.209,15.348,16.146,16.518
0.797,23.148,24.552,25.629,27.246,23.077,24.880,25.383
0.805,32.076,33.907,33.036,34.254,36.371,36.461,33.203
0.812,42.833,42.787,43.113,40.253,40.093,39.348,38.970
0.820,40.651,39.394,40.820,40.192,38.965,40.446,42.887
0.828,34.211,33.946,33.496,33.629,35.991,36.836,34.733
0.836,28.489,29.731,25.464,25.967,25.784,28.513,26.237
0.844,25.379,22.367,21.220,21.150,24.273,24.545,22.710
0.852,20.911,21.223,22.250,16.793,18.006,20.390,21.291
0.859,14.398,15.794,17.138,17.592,14.363,14.125,17.434
0.867,12.538,10.351,8.436,8.338,10.105,9.602,12.272
0.875,2.340,3.123,5.554,3.940,3.694,5.129,5.207
0.883,0.826,5.446,0.715,4.271,0.955,2.106,3.420
0.891,5.536,7.338,8.188,6.981,9.501,9.517,10.589
0.898,21.337,19.556,20.702,20.151,21.374,19.562,19.667
0.906,30.643,29.947,35.411,32.273,33.935,31.824,32.303
0.914,39.934,39.588,38.343,38.767,38.190,39.796,37.650
0.922,38.706,38.681,38.096,38.970,40.768,38.126,42.226
0.930,35.545,38.460,35.269,35.299,36.938,37.286,37.319
0.938,32.187,32.786,33.682,31.044,31.728,31.560,30.982
0.945,26.599,31.200,28.307,29.021,29.389,31.744,28.469
0.953,30.673,28.640,30.787,29.120,29.247,27.482,27.406
0.961,25.736,28.882,24.214,26.518,28.089,28.067,26.041
0.969,20.770,24.957,24.685,23.899,23.003,22.535,25.323
0.977,19.057,17.987,21.092,16.622,19.987,19.612,17.908
0.984,19.788,22.200,19.315,20.002,20.678,21.216,19.806
0.992,29.661,26.585,30.141,28.595,30.768,25.782,25.576
1.000,40.436,41.655,40.250,39.401,43.163,41.463,39.916
1.008,56.327,55.066,57.628,53.536,56.201,54.927,56.252
1.016,61.543,63.702,63.311,60.879,64.638,61.466,65.546
1.023,62.857,62.324,63.181,60.682,63.330,60.329,65.659
1.031,57.929,55.996,58.794,56.134,58.990,56.285,57.198
1.039,55.023,52.360,55.504,55.468,54.207,54.135,53.989
1.047,52.717,54.097,51.978,50.170,52.533,50.516,49.755
1.055,51.960,52.275,50.623,52.687,50.479,53.008,48.903
1.062,48.798,47.930,47.586,49.716,49.254,48.717,49.883
1.070,44.505,43.401,41.727,46.442,42.381,44.636,42.312
1.078,41.390,41.154,40.163,42.776,39.414,40.054,40.997
1.086,43.522,43.429,41.924,40.472,41.260,42.810,44.238
1.094,49.131,51.369,49.337,50.099,51.163,48.699,50.753
1.102,65.092,64.373,64.093,63.877,60.729,61.198,61.697
1.109,72.633,75.479,74.620,72.439,73.898,75.132,74.572
1.117,77.455,78.022,78.887,76.530,75.791,76.611,76.312
1.125,76.122,76.280,76.401,74.577,74.238,76.274,72.741
1.133,67.477,68.949,66.191,65.975,69.394,69.899,66.615
1.141,62.855,60.535,60.636,64.007,64.132,59.384,60.953
1.148,59.703,55.974,57.141,61.799,56.982,57.087,59.216
1.156,53.385,56.314,57.527,53.640,56.624,56.203,56.206
1.164,51.067,48.449,51.974,50.099,52.593,48.070,51.329
1.172,42.473,44.435,44.519,45.698,44.327,43.028,44.275
1.180,36.237,38.667,35.986,36.189,36.896,40.540,36.389
1.188,36.949,39.383,36.601,38.740,40.607,38.249,37.242
1.195,46.165,47.168,45.330,46.495,47.331,44.909,47.702
1.203,55.803,57.816,56.417,55.043,54.475,56.731,55.269
1.211,63.120,65.382,63.457,65.539,64.825,65.832,64.344
1.219,66.398,64.782,62.775,67.361,64.307,62.716,66.322
1.227,60.609,57.321,56.556,58.106,60.170,59.259,58.939
1.234,49.859,49.370,48.381,48.821,52.586,49.753,52.181
1.242,41.177,41.889,45.661,45.870,45.608,43.033,40.201
1.250,38.055,37.393,37.967,37.468,36.118,38.671,39.800
1.258,32.964,34.916,33.262,33.528,33.452,33.165,33.571
1.266,24.121,26.043,27.366,26.871,28.548,24.715,24.712
1.273,20.904,18.180,18.497,21.026,20.613,20.974,18.186
1.281,12.509,16.300,16.152,11.418,15.961,14.049,15.149
1.289,15.206,14.201,18.061,18.686,14.196,16.772,14.416
1.297,26.655,22.221,25.536,24.523,22.340,23.027,24.249
1.305,35.728,32.238,34.971,36.221,35.371,33.626,36.586
1.312,41.995,41.764,40.103,42.098,39.307,44.337,38.870
1.320,41.706,38.997,42.591,43.073,40.834,43.432,43.024
1.328,36.786,37.608,35.716,33.493,36.516,33.553,33.567
1.336,28.687,26.765,27.387,27.804,25.990,29.603,26.542
1.344,22.512,21.434,21.340,22.295,25.071,21.508,24.138
1.352,17.867,21.158,18.194,17.784,20.688,21.367,21.897
1.359,18.691,16.606,16.483,17.150,18.814,15.319,15.184
1.367,10.835,9.411,8.388,10.403,10.186,11.517,10.763
1.375,4.899,5.998,5.871,2.204,6.719,2.989,5.743
1.383,0.989,2.222,3.462,3.276,1.454,1.664,1.766
1.391,8.912,9.244,8.398,10.295,6.089,8.047,6.807
1.398,20.869,17.378,20.465,19.077,19.437,18.540,20.350
1.406,31.439,30.416,31.508,30.356,32.939,31.441,33.981
1.414,41.784,37.471,41.457,37.752,41.424,39.046,42.254
1.422,41.430,39.058,40.101,42.165,39.393,40.044,39.952
1.430,36.176,37.751,34.314,35.462,35.562,35.483,35.140
1.438,31.080,28.931,32.899,30.347,33.714,32.851,32.368
1.445,26.624,28.619,31.578,29.057,30.914,29.390,28.914
1.453,28.732,28.541,26.672,30.547,25.123,27.624,27.132
1.461,24.190,27.648,25.936,27.601,25.943,27.500,28.548
1.469,21.961,20.155,22.839,23.464,22.994,21.851,21.095
1.477,18.482,18.442,18.431,19.879,18.553,18.804,19.257
1.484,18.391,21.569,19.717,22.470,20.851,20.634,19.928
1.492,29.019,28.408,29.924,31.136,29.076,29.968,31.216
1.500,42.299,40.396,40.841,41.589,45.491,41.342,41.563
1.508,55.282,52.858,56.524,53.294,53.980,57.016,57.605
1.516,59.330,62.686,62.165,62.352,62.848,60.990,61.225
1.523,60.967,62.032,63.555,61.504,61.900,64.098,64.087
1.531,57.778,60.438,56.374,58.567,61.568,55.833,56.810
1.539,52.529,54.030,52.689,54.076,54.074,56.445,53.941
1.547,50.664,52.770,53.769,50.385,50.573,50.174,55.065
1.555,54.007,50.270,54.185,48.366,50.835,52.283,53.493
1.562,46.687,50.026,48.306,49.896,47.316,51.035,47.710
1.570,43.600,44.477,44.575,42.005,44.780,44.865,43.498
1.578,41.073,38.856,40.420,41.131,37.742,41.351,41.939
1.586,43.726,43.404,41.721,40.453,42.301,41.765,39.867
1.594,51.525,50.508,51.701,51.494,51.549,50.439,49.005
1.602,60.513,63.097,64.669,59.877,61.841,61.196,64.946
1.609,74.607,71.017,74.653,73.866,74.900,74.234,72.517
1.617,75.620,78.578,78.420,77.873,76.374,79.688,78.399
1.625,76.105,74.596,74.629,73.532,76.026,73.576,74.512
1.633,68.045,69.136,68.671,68.224,67.344,66.628,69.037
1.641,64.135,60.831,62.976,63.331,62.507,62.861,64.515
1.648,59.636,59.009,60.181,57.917,57.815,60.094,59.041
1.656,53.426,56.351,56.080,54.598,56.276,56.494,54.400
1.664,47.772,52.561,52.407,49.360,51.318,51.895,50.969
1.672,43.819,41.524,43.946,44.402,41.585,45.646,44.163
1.680,35.898,35.354,39.620,36.511,38.159,36.484,39.553
1.688,38.492,40.286,39.025,35.515,37.153,36.342,40.142
1.695,43.331,45.086,45.067,45.310,44.228,44.046,44.072
1.703,56.185,57.567,56.589,56.524,54.747,57.080,54.870
1.711,64.065,63.926,64.618,63.302,65.253,60.783,63.784
1.719,63.209,66.646,64.059,65.730,62.694,63.585,62.217
1.727,59.303,59.532,60.126,56.402,56.559,59.682,57.043
1.734,49.493,50.974,50.600,49.472,52.131,48.756,49.556
1.742,42.817,43.772,41.919,42.060,42.353,42.605,42.297
1.750,40.473,39.579,40.979,36.802,36.522,36.644,37.817
1.758,31.525,34.443,35.278,32.893,34.059,32.330,35.266
1.766,25.741,25.448,24.298,27.165,29.041,27.500,25.536
1.773,17.591,17.722,18.374,17.713,21.880,17.943,17.241
1.781,13.718,14.766,12.230,11.871,14.310,15.849,13.695
1.789,14.754,13.097,14.475,16.280,16.906,18.549,16.732
1.797,26.501,23.033,24.712,25.139,21.545,25.687,25.178
1.805,35.120,35.548,32.222,36.737,32.644,32.315,33.595
1.812,41.752,41.279,39.899,43.205,43.713,40.621,40.880
1.820,40.732,39.235,40.941,41.506,39.367,42.421,38.621
1.828,36.938,34.635,37.098,37.559,35.217,36.924,36.159
1.836,26.823,28.398,28.506,28.532,28.966,30.083,27.522
1.844,25.628,23.192,24.467,25.686,24.776,23.689,23.062
1.852,18.937,18.672,17.411,21.610,19.319,19.745,22.734
1.859,17.844,14.852,14.120,14.620,16.580,16.755,16.772
1.867,12.209,11.085,8.494,11.922,10.924,11.158,12.009
1.875,3.851,5.926,6.749,3.528,6.260,2.707,6.078
1.883,2.461,2.476,3.689,1.781,2.384,5.763,2.493
1.891,9.996,9.039,9.397,9.303,10.010,5.768,7.769
1.898,20.923,17.879,20.414,19.246,19.553,20.691,19.982
1.906,31.211,29.362,34.645,34.801,33.772,34.900,31.780
1.914,40.474,39.705,41.928,41.010,36.783,38.647,39.967
1.922,38.321,39.757,37.893,39.344,41.646,41.631,40.959
1.930,34.393,39.057,35.249,34.777,37.973,33.178,37.363
1.938,34.154,29.929,29.351,30.211,32.051,32.828,30.436
1.945,29.929,31.162,29.408,26.635,29.210,26.598,30.391
1.953,29.501,29.881,29.511,27.564,29.624,26.764,29.434
1.961,27.008,27.730,26.357,27.865,26.557,28.146,23.593
1.969,21.296,25.194,20.964,23.570,25.412,24.645,21.111
1.977,16.776,18.527,18.255,20.169,20.581,17.038,18.914
1.984,21.937,22.105,18.724,20.657,18.675,20.528,18.401
1.992,29.828,27.555,27.555,27.232,28.631,29.151,27.833
2.000,43.856,43.789,44.782,43.022,40.375,42.522,42.301
2.008,53.100,51.572,56.273,52.659,53.548,55.168,57.506
2.016,61.103,64.327,61.576,61.818,62.029,64.884,62.897
2.023,62.445,63.270,62.200,63.642,58.978,60.743,60.993
2.031,60.387,58.127,57.909,59.821,55.888,55.816,59.815
2.039,55.049,55.749,55.113,54.653,53.821,56.863,54.410
2.047,54.520,50.508,51.428,53.536,51.573,53.069,51.130
2.055,54.564,52.775,50.330,52.078,52.197,52.450,49.158
2.062,50.107,48.470,45.823,50.724,49.549,49.626,49.615
2.070,44.728,41.746,44.271,44.727,46.483,44.325,45.734
2.078,40.112,37.943,39.929,38.711,38.043,39.768,41.274
2.086,44.281,43.535,42.636,41.989,41.564,43.703,39.703
2.094,48.125,51.417,52.592,48.578,49.689,53.414,48.326
2.102,60.415,63.147,61.883,60.983,63.001,62.141,60.306
2.109,76.160,72.403,74.459,72.500,75.449,75.549,73.706
2.117,80.072,77.705,79.106,76.183,78.428,76.478,75.603
2.125,76.003,74.030,72.863,74.644,73.818,72.881,73.378
2.133,68.317,67.164,70.969,68.695,65.800,68.614,70.890
2.141,63.898,63.792,60.936,62.945,61.617,62.016,64.031
2.148,61.024,57.791,61.398,59.109,59.047,61.093,56.243
2.156,56.734,54.840,56.779,53.613,56.415,55.327,57.706
2.164,52.457,48.453,52.080,47.377,48.508,49.697,51.022
2.172,40.489,40.689,43.126,41.668,43.854,40.393,44.304
2.180,37.649,36.247,36.737,39.332,35.392,38.630,38.458
2.188,36.805,40.411,40.801,36.637,39.440,36.753,38.979
2.195,45.981,46.999,46.741,43.014,44.585,45.461,48.058
2.203,57.143,56.783,54.660,54.974,59.081,58.075,54.134
2.211,60.040,64.560,61.028,61.699,61.548,63.275,63.268
2.219,62.761,65.558,66.494,64.799,64.673,66.522,63.744
2.227,56.612,58.374,56.453,58.626,57.932,56.135,57.334
2.234,49.052,50.066,52.583,49.762,52.557,52.148,48.678
2.242,42.422,45.235,43.047,42.423,41.411,44.451,43.069
2.250,41.213,38.516,37.922,37.568,37.948,38.101,36.203
2.258,32.368,30.634,34.599,30.731,35.861,34.041,33.502
2.266,25.363,25.948,24.917,25.846,24.856,25.537,26.588
2.273,18.057,20.982,19.569,21.219,18.073,21.125,19.315
2.281,14.811,14.535,13.359,14.011,16.179,16.891,12.524
2.289,14.431,13.569,17.759,18.820,17.541,15.667,14.019
2.297,21.792,21.973,21.301,24.340,28.029,21.553,25.602
2.305,34.642,37.180,33.507,32.750,37.333,32.742,34.675
2.312,41.717,41.983,42.652,39.125,41.873,39.770,39.820
2.320,39.968,39.885,39.851,40.598,39.685,41.693,38.411
2.328,32.482,34.314,33.728,34.857,37.634,37.813,35.195
2.336,27.669,27.068,28.002,30.223,28.122,28.617,26.528
2.344,20.285,25.650,24.123,22.608,20.839,20.366,23.637
2.352,18.228,18.523,19.577,17.906,19.733,20.719,20.663
2.359,18.048,17.172,15.679,13.769,17.576,14.109,14.392
2.367,12.111,9.719,9.332,13.054,11.292,10.836,9.648
2.375,3.653,3.482,2.523,4.951,4.892,6.424,3.170
2.383,1.428,3.284,4.842,4.507,3.180,0.938,1.842
2.391,6.317,9.219,9.113,7.768,9.026,9.191,9.243
2.398,18.652,18.745,17.376,17.718,19.458,20.805,18.226
2.406,33.430,31.721,31.811,32.279,32.453,32.884,32.575
2.414,37.572,37.424,37.611,39.559,40.839,41.060,40.207
2.422,39.536,39.797,42.657,40.409,42.678,39.077,40.652
2.430,34.644,38.665,38.316,37.574,38.357,35.482,33.748
2.438,28.768,31.665,29.005,31.064,32.329,30.170,34.035
2.445,29.939,28.840,30.456,30.104,30.649,28.754,28.870
2.453,29.026,28.215,25.929,28.031,28.074,29.427,28.882
2.461,26.770,24.597,25.409,23.950,27.420,27.679,25.904
2.469,23.059,19.949,24.992,23.599,24.147,23.962,21.936
2.477,18.554,20.350,18.081,17.440,17.827,18.889,17.602
2.484,22.088,18.691,21.789,17.498,18.963,19.777,18.823
2.492,30.111,30.164,25.401,27.962,29.483,30.548,32.097
2.500,42.291,42.293,42.795,42.208,43.328,43.497,40.704
2.508,56.038,54.866,58.460,57.321,55.788,56.271,53.312
2.516,61.035,62.490,60.911,63.399,63.529,64.845,64.189
2.523,63.126,61.459,63.673,62.168,64.903,61.409,59.983
2.531,61.080,59.688,61.293,59.407,58.647,60.423,60.287
2.539,51.190,52.674,53.335,52.614,54.565,52.221,54.656
2.547,52.951,52.093,52.905,54.027,50.617,50.582,50.749
2.555,50.659,51.422,48.897,53.694,50.337,50.804,49.314
2.562,49.718,47.822,50.038,49.967,47.711,49.740,47.384
2.570,42.340,43.284,43.157,44.724,45.868,44.123,43.357
2.578,38.968,38.637,40.874,38.252,40.099,41.559,42.788
2.586,40.128,43.641,43.151,43.437,40.933,43.926,40.502
2.594,50.963,48.924,50.438,48.946,49.966,51.035,48.022
2.602,60.680,60.903,63.475,63.527,60.544,63.517,63.738
2.609,71.897,72.513,74.147,73.667,72.100,75.760,74.022
2.617,75.299,76.629,77.327,79.275,76.524,78.505,78.391
2.625,73.081,74.331,73.190,74.807,74.784,76.588,74.136
2.633,67.016,70.137,67.473,69.321,68.077,68.123,68.138
2.641,64.843,63.819,61.782,62.886,61.409,62.364,64.315
2.648,58.462,59.980,56.200,58.027,57.534,60.624,58.406
2.656,53.059,53.302,53.299,52.951,54.895,54.332,56.092
2.664,47.595,48.517,49.621,52.153,52.592,50.379,50.267
2.672,43.334,40.507,42.438,43.207,41.935,43.095,43.796
2.680,35.672,35.283,35.695,38.783,37.235,36.533,34.981
2.688,35.416,40.896,38.240,39.652,38.855,35.294,39.332
2.695,48.243,42.711,45.603,43.581,46.897,44.114,47.242
2.703,55.216,55.517,54.182,55.783,53.161,56.962,56.187
2.711,64.944,65.234,66.330,65.036,64.012,60.238,61.042
2.719,63.202,62.321,65.257,65.588,62.082,64.584,62.143
2.727,60.406,58.334,60.005,57.210,58.604,56.002,55.883
2.734,48.935,51.484,51.948,52.585,51.000,48.405,50.680
2.742,44.090,42.818,42.788,42.363,43.525,43.657,41.104
2.750,41.467,40.021,41.098,38.111,38.461,40.251,39.943
2.758,35.288,34.941,35.942,33.306,32.154,34.847,31.296
2.766,28.124,27.180,25.320,26.141,27.617,28.035,29.151
2.773,19.812,18.085,21.324,17.509,20.530,20.755,17.826
2.781,14.540,13.159,11.484,15.615,12.480,12.202,13.594
2.789,15.268,15.758,15.394,15.551,16.416,17.814,12.936
2.797,22.397,23.145,26.560,23.529,23.436,24.846,21.849
2.805,31.370,35.342,36.723,36.195,32.188,33.646,34.523
2.812,39.438,41.576,42.982,39.460,43.363,37.984,40.977
2.820,41.459,43.112,38.848,43.099,42.391,42.864,39.579
2.828,35.165,35.054,33.274,36.168,35.454,35.923,33.769
2.836,29.197,28.429,27.046,26.800,28.995,29.667,29.858
2.844,23.095,23.131,24.638,24.178,22.456,21.154,24.254
2.852,18.814,22.755,18.556,16.921,18.753,21.568,22.056
2.859,16.288,14.016,17.881,17.779,13.559,17.871,14.475
2.867,8.814,11.436,11.019,12.331,9.283,9.660,12.952
2.875,7.421,6.288,3.152,7.147,4.124,2.864,2.782
2.883,5.577,3.428,3.056,4.909,0.519,3.727,3.791
2.891,8.123,9.313,7.073,7.039,9.240,6.105,7.717
2.898,19.845,17.872,22.513,19.659,19.079,18.730,18.387
2.906,34.853,34.708,32.881,34.150,33.582,30.706,32.661
2.914,41.052,40.400,39.416,38.044,42.148,38.683,39.520
2.922,40.617,42.015,42.556,38.932,40.777,42.779,41.863
2.930,37.927,37.597,38.344,34.024,35.090,36.227,34.971
2.938,33.181,31.555,29.552,33.124,29.873,30.356,32.777
2.945,29.388,29.390,27.933,27.549,28.394,28.035,31.440
2.953,31.433,28.956,29.647,28.484,30.539,29.526,26.298
2.961,28.137,23.546,26.439,24.808,25.392,25.405,27.895
2.969,20.086,25.420,20.926,23.382,23.691,20.645,24.735
2.977,16.861,19.046,19.011,17.020,20.964,17.810,16.994
2.984,18.410,22.541,19.383,22.442,18.210,19.162,19.126
2.992,30.076,27.656,28.505,26.954,27.541,29.696,29.773
3.000,44.354,44.499,40.431,39.869,44.892,43.498,41.090
3.008,55.595,53.849,53.554,53.404,54.090,55.019,55.634
3.016,62.993,62.297,61.523,63.674,63.514,65.044,59.648
3.023,61.513,62.087,60.462,63.579,61.850,61.878,64.847
3.031,61.084,56.618,57.995,60.121,57.469,56.956,58.308
3.039,55.357,55.892,56.578,53.777,56.417,55.878,53.980
3.047,54.593,51.771,50.025,50.567,52.375,52.472,53.945
3.055,51.330,51.675,52.768,51.982,51.095,51.030,49.740
3.062,49.947,47.535,48.892,48.213,51.459,49.533,46.595
3.070,46.118,46.020,45.315,45.795,44.854,43.611,42.408
3.078,42.578,40.175,40.612,39.417,40.755,42.298,41.425
3.086,44.020,43.658,44.268,42.563,38.825,44.617,40.855
3.094,52.884,48.955,48.698,50.925,50.850,50.606,50.129
3.102,64.229,65.125,65.461,60.287,61.380,59.615,63.961
3.109,72.632,72.113,74.307,71.804,73.987,73.782,71.771
3.117,76.625,75.884,77.863,75.737,78.646,77.730,78.199
3.125,72.893,73.726,72.836,74.008,75.699,75.051,74.117
3.133,70.623,70.083,68.395,68.595,67.048,67.302,69.918
3.141,60.246,59.807,63.544,65.098,62.821,63.895,60.693
3.148,59.820,57.970,59.743,60.308,60.161,60.901,60.643
3.156,57.704,53.975,56.627,55.899,54.427,56.591,56.861
3.164,48.136,48.699,48.911,49.820,51.242,52.662,48.150
3.172,45.075,43.705,44.145,41.751,42.648,42.146,44.890
3.180,37.767,36.402,36.055,39.385,39.381,39.162,36.938
3.188,39.174,36.025,41.555,38.239,36.158,38.273,40.241
3.195,45.630,47.813,43.843,44.961,43.376,44.953,44.406
3.203,55.908,55.226,58.474,54.905,56.545,54.396,57.566
3.211,64.430,65.604,64.714,62.379,64.274,62.249,61.756
3.219,62.614,63.779,65.182,66.160,64.435,62.676,61.456
3.227,59.302,57.727,58.907,57.180,56.613,59.570,58.479
3.234,51.334,49.477,50.360,50.749,48.285,52.818,52.640
3.242,43.862,41.405,44.863,43.430,43.514,45.784,43.782
3.250,38.418,41.928,36.911,37.079,40.202,39.175,37.758
3.258,32.201,33.421,33.070,33.061,36.676,35.357,35.686
3.266,25.110,26.155,25.413,26.525,27.682,25.572,23.772
3.273,18.838,17.357,17.383,19.347,21.794,19.259,18.113
3.281,16.243,13.959,15.603,12.870,14.681,15.949,13.035
3.289,18.248,15.885,16.836,15.360,16.155,15.557,18.108
3.297,25.222,25.469,24.524,23.422,23.334,24.468,21.961
3.305,36.056,35.376,32.724,33.333,36.159,36.324,35.728
3.312,40.349,39.744,40.560,43.605,43.712,43.646,40.141
3.320,43.849,40.065,43.007,41.772,40.214,38.719,39.359
3.328,35.762,34.269,33.786,32.463,37.150,35.679,33.621
3.336,31.070,27.146,27.089,29.198,28.715,29.752,30.038
3.344,22.166,20.266,21.190,24.735,21.092,20.219,21.380
3.352,19.823,17.943,20.226,21.299,21.016,18.117,22.207
3.359,17.987,17.319,15.274,16.270,14.275,14.507,13.710
3.367,9.836,9.403,10.379,9.355,9.543,10.368,10.739
3.375,6.766,4.725,6.257,6.395,2.479,6.979,5.413
3.383,5.539,3.807,2.803,5.538,4.342,4.552,0.975
3.391,6.512,10.073,7.071,7.607,9.559,7.878,9.888
3.398,18.767,21.920,19.926,21.827,19.420,17.964,21.068
3.406,33.841,33.178,31.898,32.405,29.828,34.880,32.918
3.414,37.240,41.163,40.113,40.826,40.041,38.863,38.019
3.422,41.305,40.851,40.513,41.500,41.337,42.728,41.186
3.430,37.330,34.534,34.545,35.970,33.035,38.721,33.824
3.438,29.375,33.718,30.870,30.067,33.800,31.034,32.151
3.445,26.605,30.864,31.547,26.659,27.756,30.661,29.084
3.453,27.078,29.812,28.716,27.789,26.352,30.258,28.989
3.461,28.979,26.813,28.224,24.625,25.854,27.204,28.625
3.469,21.268,21.517,20.301,24.168,21.046,23.274,22.895
3.477,16.989,16.642,16.906,17.493,17.869,19.739,17.443
3.484,22.475,21.258,18.238,20.047,22.904,23.244,22.157
3.492,28.671,27.537,28.966,27.591,30.132,29.922,29.842
3.500,39.882,44.159,40.546,39.475,41.518,41.916,43.009
3.508,56.102,52.476,56.053,56.384,55.886,54.463,54.827
3.516,63.098,65.058,63.877,61.324,59.642,64.375,61.622
3.523,63.533,64.883,63.702,62.721,64.895,63.997,65.792
3.531,57.945,59.101,57.349,59.544,59.544,56.800,57.191
3.539,52.536,54.936,56.976,54.307,55.494,53.010,56.839
3.547,50.362,53.992,49.500,52.182,51.469,51.370,54.906
3.555,51.111,53.299,51.448,50.940,48.546,51.781,52.394
3.562,45.612,47.776,49.172,46.874,50.324,47.762,47.612
3.570,42.770,45.059,42.430,43.913,46.066,45.489,46.131
3.578,43.069,39.253,39.340,42.743,38.892,39.181,40.226
3.586,42.824,41.005,40.245,41.221,43.318,42.507,43.479
3.594,51.461,50.395,48.256,50.867,50.758,50.747,48.744
3.602,61.670,64.566,65.125,62.010,60.288,62.988,64.442
3.609,72.274,73.836,72.357,72.133,75.855,73.352,70.833
3.617,78.626,75.306,77.892,79.335,79.647,77.283,77.024
3.625,76.579,74.783,73.055,74.190,71.947,76.038,74.745
3.633,66.715,69.155,67.751,66.950,70.226,66.709,66.766
3.641,65.413,60.723,62.657,59.736,64.728,60.223,63.202
3.648,58.389,58.649,58.476,56.447,60.169,57.605,56.318
3.656,57.611,58.212,58.161,54.054,57.104,53.790,56.781
3.664,51.699,47.680,50.493,51.878,51.200,51.590,51.647
3.672,42.260,43.146,43.963,44.564,44.600,42.097,41.614
3.680,35.693,37.899,36.736,37.953,39.613,34.945,39.202
3.688,38.290,39.419,39.396,36.996,39.398,37.395,38.420
3.695,44.917,47.629,43.148,43.433,48.573,47.647,44.739
3.703,57.266,53.889,55.340,54.702,56.059,55.906,55.202
3.711,63.454,64.861,66.050,62.945,65.138,61.997,65.518
3.719,64.833,67.172,64.744,66.784,63.746,67.043,61.970
3.727,58.296,60.375,59.582,57.544,57.386,57.406,59.743
3.734,51.166,49.865,48.626,51.718,51.775,50.047,51.570
3.742,41.251,43.978,46.064,43.297,44.705,43.411,46.398
3.750,40.421,40.124,35.450,38.535,36.524,37.427,37.132
3.758,33.452,34.616,34.012,31.873,32.317,31.548,32.225
3.766,25.018,27.932,29.364,25.582,25.184,28.726,25.438
3.773,17.787,21.085,17.736,18.594,19.842,19.749,16.862
3.781,14.118,14.549,14.386,11.543,13.299,12.780,15.528
3.789,15.719,14.593,13.887,14.487,13.200,14.053,16.963
3.797,24.660,24.912,22.654,24.495,24.697,23.410,23.489
3.805,35.563,34.193,33.750,33.715,35.239,33.541,37.379
3.812,43.344,38.433,41.940,41.022,41.336,39.638,38.807
3.820,40.546,41.877,39.553,43.856,39.851,41.005,41.602
3.828,36.129,37.264,36.928,35.768,32.868,36.678,37.850
3.836,28.790,29.262,29.125,29.939,30.079,26.883,28.658
3.844,20.783,22.303,22.327,22.370,22.462,23.874,24.514
3.852,18.983,22.295,22.067,19.365,17.635,18.653,17.795
3.859,16.466,18.424,18.342,16.486,16.733,13.301,17.798
3.867,11.797,9.103,8.431,11.797,10.503,10.791,8.447
3.875,3.125,6.196,2.634,5.700,6.604,6.700,5.469
3.883,2.337,2.738,2.064,3.292,2.337,1.483,5.703
3.891,8.456,5.546,5.582,10.069,8.852,8.420,9.651
3.898,20.340,19.918,18.314,21.749,19.243,17.700,18.395
3.906,33.108,31.781,31.257,29.568,31.237,33.277,34.173
3.914,37.227,37.234,38.351,38.366,39.462,39.425,38.033
3.922,40.477,42.918,41.619,39.515,41.253,38.094,40.429
3.930,36.611,36.010,36.287,38.173,33.877,34.507,36.350
3.938,30.071,28.659,29.596,29.251,32.506,32.035,30.931
3.945,28.125,30.563,27.447,28.074,30.290,28.419,25.953
3.953,28.656,27.057,25.891,28.395,29.666,26.647,26.797
3.961,27.382,28.565,27.820,27.918,28.136,25.579,23.051
3.969,20.167,19.571,24.007,22.601,20.497,20.630,21.529
3.977,19.931,19.205,19.483,19.923,18.386,18.631,18.088
3.984,21.234,21.945,19.982,19.868,20.828,19.842,23.236
3.992,29.515,26.449,30.366,31.016,28.430,27.454,27.215
4.000,42.336,41.853,44.107,41.232,41.637,42.238,42.310
4.008,56.651,55.266,57.159,56.660,53.307,54.901,52.118
4.016,61.473,60.347,62.557,64.210,63.048,62.485,63.058
4.023,60.918,60.982,62.323,63.311,63.677,59.073,62.143
4.031,57.300,60.252,60.407,59.499,56.334,59.266,60.203
4.039,56.419,54.104,55.189,56.605,54.470,52.989,52.262
4.047,54.907,52.655,51.947,50.286,55.404,54.967,50.970
4.055,52.726,52.515,53.535,52.557,48.709,50.097,52.314
4.062,46.342,48.140,50.206,48.614,51.267,48.962,52.043
4.070,41.592,43.177,42.296,44.126,46.384,46.031,42.746
4.078,42.331,41.219,39.869,40.797,38.538,39.775,42.427
4.086,41.367,41.632,40.992,41.691,43.349,40.884,40.994
4.094,48.572,52.396,49.230,52.300,51.455,49.621,52.468
4.102,64.336,64.036,63.991,64.328,64.832,63.787,65.776
4.109,73.448,73.237,73.027,72.118,71.196,73.311,73.822
4.117,76.281,77.510,76.006,79.489,77.537,76.057,79.680
4.125,77.179,74.614,74.058,75.141,74.010,74.251,76.247
4.133,69.956,70.486,69.455,69.829,67.620,69.037,68.278
4.141,64.702,63.035,62.443,62.882,62.764,62.516,62.877
4.148,58.349,57.125,59.179,57.147,57.745,58.647,58.029
4.156,52.599,53.434,57.423,54.241,54.247,53.255,56.267
4.164,50.212,51.013,49.985,48.335,50.920,52.854,51.244
4.172,41.375,44.012,40.741,40.625,43.503,44.987,44.591
4.180,38.805,35.081,38.931,36.542,40.764,35.707,39.651
4.188,39.399,40.636,40.518,38.216,37.477,39.195,36.405
4.195,44.775,45.547,43.672,45.131,45.161,44.349,47.218
4.203,55.981,52.854,53.808,55.094,54.853,55.404,58.975
4.211,63.446,64.669,66.445,61.454,61.178,63.362,62.597
4.219,63.179,63.174,64.872,66.071,64.648,63.804,66.270
4.227,58.593,56.327,59.927,58.168,58.226,55.417,60.257
4.234,49.139,48.478,49.290,51.693,52.457,47.731,49.343
4.242,44.512,42.348,44.028,41.343,42.751,42.810,43.382
4.250,35.387,37.896,39.981,38.211,37.690,36.650,36.685
4.258,31.447,31.849,36.381,35.437,34.439,34.113,31.848
4.266,24.610,24.641,24.837,27.714,23.583,28.107,26.599
4.273,18.522,16.331,17.716,18.415,21.192,16.002,16.515
4.281,12.533,13.278,16.353,12.564,17.401,12.962,13.836
4.289,17.954,16.539,15.176,14.947,18.852,14.304,13.437
4.297,27.475,22.823,21.945,23.969,22.941,25.423,26.651
4.305,35.298,34.641,36.579,31.498,35.157,33.064,36.855
4.312,42.021,41.644,41.811,40.552,40.037,37.985,41.481
4.320,39.487,41.534,42.318,40.457,43.053,38.591,41.626
4.328,33.503,36.464,33.311,35.771,33.812,37.860,34.461
4.336,28.129,26.573,28.753,30.065,28.768,28.966,26.740
4.344,21.769,23.722,23.437,23.984,24.763,25.207,23.525
4.352,18.074,21.483,19.438,22.816,18.378,21.005,19.058
4.359,15.391,16.294,17.622,14.617,16.141,14.890,16.722
4.367,10.814,10.500,12.243,8.227,8.353,8.669,9.889
4.375,3.915,3.018,5.435,3.337,5.847,7.014,2.928
4.383,3.534,5.378,0.619,2.909,2.877,5.075,4.358
4.391,7.172,8.216,7.525,6.999,10.238,6.666,10.320
4.398,18.440,19.101,19.425,21.579,18.963,19.368,22.081
4.406,34.080,32.222,29.775,32.696,32.349,30.635,32.406
4.414,41.955,37.855,41.079,39.672,42.327,40.134,41.760
4.422,41.045,41.943,37.884,39.305,38.446,41.153,38.860
4.430,37.654,35.087,34.596,36.141,36.071,35.092,39.071
4.438,33.400,33.141,30.822,29.565,33.923,29.435,29.377
4.445,28.633,25.542,30.708,31.321,30.528,27.407,29.998
4.453,30.118,26.918,29.971,25.485,28.417,29.837,27.161
4.461,25.741,27.821,28.064,28.347,25.138,26.128,24.840
4.469,23.924,23.432,21.688,20.546,20.428,19.604,20.329
4.477,19.993,17.431,18.797,17.623,20.159,19.316,19.588
4.484,18.706,19.813,18.811,20.733,20.194,17.868,22.526
4.492,26.710,26.766,30.402,27.379,29.806,27.249,25.817
4.500,44.546,40.085,42.686,43.767,39.134,43.910,43.546
4.508,54.296,57.985,56.485,52.735,54.374,54.962,54.626
4.516,60.054,60.448,61.280,63.236,60.683,63.036,60.079
4.523,62.694,63.869,61.295,59.385,61.980,60.827,59.910
4.531,56.909,59.847,58.102,55.046,58.765,59.507,60.157
4.539,53.817,51.288,53.612,53.247,55.197,51.593,57.365
4.547,53.574,52.956,53.516,50.777,49.927,49.693,51.744
4.555,54.002,50.222,49.414,52.600,52.720,52.493,53.518
4.562,47.011,46.053,50.934,50.697,50.902,47.544,47.991
4.570,42.583,45.455,41.807,45.354,43.908,43.605,43.250
4.578,38.728,38.968,41.504,38.616,40.084,38.746,39.390
4.586,43.287,44.485,44.837,42.693,43.107,40.218,40.427
4.594,50.619,51.151,51.559,53.572,48.681,50.022,50.806
4.602,64.509,59.845,61.384,59.962,62.766,64.011,62.832
4.609,72.156,72.369,71.467,74.879,71.014,74.453,74.314
4.617,75.426,78.549,79.473,75.607,78.124,78.971,76.550
4.625,75.712,73.400,76.020,75.906,76.661,73.171,73.020
4.633,69.195,65.836,67.693,66.342,69.642,69.807,67.865
4.641,63.467,65.072,61.575,64.211,60.835,63.748,61.407
4.648,60.495,56.485,59.729,56.800,59.155,58.583,59.654
4.656,56.397,54.048,54.052,55.276,53.801,56.940,55.876
4.664,47.633,47.531,48.643,47.942,48.478,51.324,50.345
4.672,40.907,42.624,43.354,42.043,43.361,41.832,40.955
4.680,37.481,36.901,39.190,36.436,37.050,37.628,35.948
4.688,36.764,40.257,36.848,35.119,37.134,40.574,36.845
4.695,47.323,44.006,48.360,46.642,45.339,46.212,47.647
4.703,56.494,56.373,56.151,56.250,55.251,55.689,58.475
4.711,65.788,65.828,65.504,65.087,62.319,61.742,64.862
4.719,65.826,66.248,62.325,63.303,66.451,65.094,65.677
4.727,60.124,55.807,58.725,58.231,60.708,57.065,55.561
4.734,48.754,49.214,51.161,50.194,49.732,52.427,50.859
4.742,42.083,42.213,44.725,42.528,44.165,42.474,46.044
4.750,37.820,35.870,40.453,38.818,39.183,38.477,38.100
4.758,32.276,32.530,33.018,31.325,30.853,33.854,32.976
4.766,26.986,27.469,29.509,26.266,27.102,27.767,28.199
4.773,20.976,17.947,17.512,18.907,19.989,19.512,19.673
4.781,11.829,11.806,11.453,12.230,12.937,16.595,12.530
4.789,18.252,17.552,17.342,17.843,14.835,17.179,17.906
4.797,24.462,23.049,21.991,23.756,25.776,25.617,25.467
4.805,32.832,34.239,36.537,36.615,34.841,33.281,35.603
4.812,41.882,41.358,40.437,43.123,40.050,42.515,43.222
4.820,40.440,40.798,39.364,39.117,40.235,43.149,40.564
4.828,37.106,32.310,37.342,34.239,33.168,33.926,34.030
4.836,30.155,29.252,27.481,26.233,27.238,28.700,29.717
4.844,20.222,24.714,22.876,21.073,23.650,23.236,22.719
4.852,19.459,20.240,18.027,19.440,17.573,20.962,21.184
4.859,14.460,17.859,17.150,17.684,15.409,14.619,14.376
4.867,9.138,12.069,9.458,9.917,10.668,8.914,8.580
4.875,6.149,5.848,3.209,3.258,5.553,5.483,2.867
4.883,1.367,1.632,0.810,5.421,0.920,1.883,2.183
4.891,7.433,9.424,7.404,9.234,8.669,8.648,10.003
4.898,21.476,17.471,17.528,21.801,20.209,17.618,20.184
4.906,32.081,31.487,33.952,34.252,30.437,33.660,30.545
4.914,36.936,37.926,38.691,38.270,39.494,40.759,39.279
4.922,39.873,41.542,41.921,41.252,42.308,42.743,42.164
4.930,34.381,36.433,39.160,37.250,34.851,37.382,34.767
4.938,29.196,30.405,31.777,32.213,32.191,29.901,32.776
4.945,27.383,26.777,31.201,28.066,28.063,29.730,26.478
4.953,28.884,28.312,27.711,27.938,26.452,29.469,27.355
4.961,29.278,29.755,26.371,28.116,26.079,27.728,28.646
4.969,22.411,21.998,24.176,22.466,21.422,23.830,20.505
4.977,18.764,19.351,19.180,20.469,18.145,17.081,19.537
4.984,23.258,18.477,18.400,19.222,22.160,21.811,21.241
4.992,27.453,29.770,28.969,26.454,29.609,29.496,26.699
5.000,43.148,43.282,43.863,41.092,44.255,41.007,41.636
5.008,54.940,56.225,53.074,53.576,55.030,57.042,53.169
5.016,63.816,64.349,62.831,63.815,62.991,62.982,60.866
5.023,61.743,61.974,61.449,62.073,65.231,61.057,63.271
5.031,60.454,55.992,58.115,57.616,60.758,60.926,59.470
5.039,56.213,56.757,52.199,55.345,54.207,51.901,53.846
5.047,54.106,50.775,54.977,50.971,49.994,51.259,49.516
5.055,51.682,52.502,51.493,50.463,49.779,51.019,49.744
5.062,50.712,50.292,51.998,49.975,47.571,51.709,48.386
5.070,43.562,44.250,43.548,46.009,46.323,44.855,44.018
5.078,38.340,39.194,39.015,43.154,39.018,39.404,42.188
5.086,40.539,44.148,42.720,43.267,41.982,42.888,40.771
5.094,48.315,50.000,50.666,51.022,50.764,51.883,50.692
5.102,60.981,61.974,62.485,60.362,61.769,59.635,63.928
5.109,71.152,76.078,75.165,70.721,72.764,76.118,74.932
5.117,76.579,77.985,75.406,79.603,78.097,78.710,78.381
5.125,74.036,75.807,75.608,74.017,74.552,72.690,74.040
5.133,67.851,66.386,67.617,68.905,68.308,66.429,70.586
5.141,64.463,63.641,61.458,63.977,60.844,64.368,62.658
5.148,57.958,61.007,57.960,61.606,59.145,57.193,57.708
5.156,56.044,54.630,56.564,53.558,56.575,55.579,57.455
5.164,52.368,51.190,49.921,46.910,49.628,49.004,50.420
5.172,41.883,45.530,45.232,44.049,40.796,43.712,43.702
5.180,36.502,36.659,38.765,35.683,39.422,34.664,39.881
5.188,40.383,38.540,35.499,37.195,39.985,36.752,39.131
5.195,44.395,48.900,45.397,47.775,47.803,46.787,46.326
5.203,57.119,56.535,56.060,55.956,52.550,56.448,53.120
5.211,64.019,62.655,63.131,61.856,61.518,61.776,64.075
5.219,62.184,66.262,66.125,63.542,62.553,63.451,66.165
5.227,55.721,57.489,59.473,59.866,55.800,61.339,57.645
5.234,50.291,49.484,50.936,48.822,48.431,49.571,47.346
5.242,42.593,42.479,42.874,43.183,42.031,46.956,42.101
5.250,37.163,38.591,35.766,40.553,41.512,40.561,37.055
5.258,34.301,34.458,37.101,31.467,35.423,32.726,35.897
5.266,27.999,24.978,27.907,24.455,25.995,27.021,26.673
5.273,18.073,21.385,18.997,17.806,18.898,17.256,21.830
5.281,14.506,14.448,16.904,16.686,14.707,13.088,16.711
5.289,15.367,13.142,16.018,17.239,14.318,16.149,15.615
5.297,22.565,26.716,22.114,25.710,26.825,22.473,23.579
5.305,35.031,36.452,34.155,31.514,34.510,33.533,35.205
5.312,42.629,40.869,41.720,42.003,44.761,42.815,42.577
5.320,39.753,38.892,40.413,40.568,42.150,38.564,39.867
5.328,34.256,35.849,32.535,35.067,32.569,33.185,33.585
5.336,28.802,24.977,25.842,26.614,30.583,28.134,27.611
5.344,23.352,22.703,21.209,24.075,22.265,20.445,23.637
5.352,17.623,20.248,20.442,17.976,21.760,20.017,19.633
5.359,15.811,15.152,18.596,14.550,17.851,14.133,14.184
5.367,10.566,8.203,8.303,8.460,11.642,10.531,10.063
5.375,4.369,6.267,7.117,4.041,2.695,5.926,4.819
5.383,2.233,3.458,1.684,1.961,1.928,5.332,5.456
5.391,7.995,9.759,8.253,10.194,7.346,9.356,8.136
5.398,20.448,21.932,21.549,20.136,18.934,19.655,18.224
5.406,31.894,33.106,33.160,32.138,31.644,33.350,33.221
5.414,40.060,42.477,39.142,42.229,40.814,41.976,40.397
5.422,38.983,41.710,39.087,41.740,38.599,39.716,42.951
5.430,35.309,35.702,36.430,35.829,37.392,36.690,34.686
5.438,30.550,34.020,31.562,29.538,31.592,29.549,30.651
5.445,27.004,27.542,28.623,28.852,27.629,29.032,27.918
5.453,27.106,28.801,29.196,28.143,29.918,28.552,28.378
5.461,28.136,25.117,27.415,28.225,27.358,25.015,26.467
5.469,24.903,22.555,19.810,22.096,24.692,21.238,22.765
5.477,19.461,18.977,21.299,16.809,19.830,19.137,20.348
5.484,19.791,19.661,18.399,18.181,19.492,23.144,22.838
5.492,31.100,26.437,27.840,30.355,31.329,29.452,27.490
5.500,43.803,40.366,40.436,40.113,44.350,41.399,40.142
5.508,52.429,55.389,54.547,51.572,54.453,56.473,54.854
5.516,61.864,64.010,63.020,60.513,63.635,60.836,62.470
5.523,65.124,63.123,61.047,59.360,64.503,64.373,63.995
5.531,56.689,56.901,59.498,59.864,60.323,58.870,57.442
5.539,54.096,51.721,55.207,57.362,54.146,53.455,51.508
5.547,51.736,50.355,51.620,53.273,54.748,49.635,53.378
5.555,50.819,50.535,53.059,50.214,50.513,52.785,49.174
5.562,47.668,50.100,50.105,46.983,47.291,51.854,49.074
5.570,43.538,42.940,43.841,43.499,44.643,43.375,44.202
5.578,38.100,41.900,40.711,42.474,38.751,40.643,38.890
5.586,41.057,42.174,44.084,41.002,39.585,41.573,42.509
5.594,49.300,50.352,51.729,48.106,50.192,48.194,47.310
5.602,64.180,65.083,64.715,63.307,60.371,62.360,60.657
5.609,73.699,71.860,75.800,74.797,73.588,72.900,72.421
5.617,77.460,77.688,75.419,76.608,77.372,79.588,78.154
5.625,75.566,72.180,73.154,73.570,75.424,73.637,73.374
5.633,67.474,67.901,66.324,69.170,66.829,69.757,68.170
5.641,63.860,61.789,60.768,62.479,63.327,63.321,59.920
5.648,61.050,59.715,57.888,59.186,59.450,60.594,60.252
5.656,55.539,56.860,56.241,56.214,54.723,57.469,57.362
5.664,50.493,50.018,52.055,52.054,51.197,52.407,50.039
5.672,44.235,42.455,44.049,40.470,45.080,42.495,43.111
5.680,37.942,36.711,39.832,37.606,38.023,35.218,36.219
5.688,38.541,38.847,38.631,36.509,38.648,38.142,39.090
5.695,47.296,47.407,44.791,45.429,48.188,46.060,47.808
5.703,54.275,56.272,54.492,58.524,55.106,54.863,56.771
5.711,64.382,65.710,61.886,63.496,65.723,65.591,61.649
5.719,65.680,63.333,63.205,63.626,64.638,65.975,61.913
5.727,58.505,60.733,57.978,57.925,58.861,57.809,58.904
5.734,48.949,51.492,51.443,47.968,48.500,48.508,47.931
5.742,45.259,42.086,42.735,43.709,45.724,40.390,44.867
5.750,40.128,41.060,39.829,36.522,39.342,40.502,38.643
5.758,31.260,33.433,34.187,34.647,34.390,33.960,31.610
5.766,29.035,28.564,29.500,25.162,27.063,27.909,25.815
5.773,17.202,19.665,18.008,21.152,18.931,18.054,18.248
5.781,15.280,13.397,13.110,15.350,13.706,11.835,15.883
5.789,16.448,17.291,13.134,13.864,17.355,16.212,14.931
5.797,26.845,23.458,22.386,21.806,25.745,25.077,26.138
5.805,33.186,31.190,33.425,34.670,33.061,35.797,31.945
5.812,39.046,40.821,42.213,41.165,40.478,43.798,40.119
5.820,41.560,39.382,41.539,42.751,38.241,41.385,39.083
5.828,34.030,35.952,35.932,33.615,33.261,33.378,33.125
5.836,28.141,27.298,28.279,25.080,28.699,29.646,25.889
5.844,22.914,23.219,20.208,25.275,23.566,25.046,22.065
5.852,20.833,19.469,17.800,18.108,19.024,18.938,20.242
5.859,16.045,16.966,17.949,16.244,14.618,13.476,15.778
5.867,9.023,12.454,10.477,8.796,9.324,10.320,11.580
5.875,3.904,5.153,5.933,5.610,2.836,4.535,6.638
5.883,4.013,5.283,2.777,1.848,4.694,4.687,4.529
5.891,9.298,9.691,9.511,7.962,5.498,10.035,8.316
5.898,20.828,21.755,19.673,20.353,18.919,20.473,20.459
5.906,32.151,32.902,33.927,33.255,29.653,30.658,32.798
5.914,38.383,40.293,40.411,37.578,41.488,37.235,37.348
5.922,39.523,40.900,41.279,39.682,40.517,39.009,39.129
5.930,35.646,35.290,36.706,38.932,35.658,38.926,37.396
5.938,31.252,33.196,32.955,29.857,29.303,31.106,29.933
5.945,27.826,29.624,29.045,30.806,27.339,27.291,27.989
5.953,29.114,29.591,29.645,27.279,29.446,26.153,29.453
5.961,25.135,25.652,25.518,26.624,28.104,23.600,24.742
5.969,23.291,21.394,20.417,20.158,19.806,20.053,19.402
5.977,21.021,19.980,17.378,17.148,20.445,19.643,18.276
5.984,21.136,18.571,17.788,19.118,20.847,22.014,20.846
5.992,27.090,31.023,30.774,26.056,28.358,29.424,27.409
6.000,40.923,40.705,38.563,42.796,40.721,39.657,40.653
6.008,57.047,53.093,55.603,54.725,54.906,52.606,57.974
6.016,64.044,61.814,65.505,60.915,61.805,62.546,61.256
6.023,64.201,64.464,59.752,61.939,61.394,60.641,62.583
6.031,57.763,59.854,60.749,56.983,60.185,59.290,59.270
6.039,51.097,51.940,52.628,54.089,51.794,53.970,53.328
6.047,53.853,51.285,52.410,52.502,49.692,50.520,54.389
6.055,52.974,52.859,49.175,51.210,49.691,50.689,49.589
6.062,50.712,49.135,49.250,45.901,47.828,48.121,49.845
6.070,45.928,43.874,44.232,46.159,46.024,45.094,42.402
6.078,42.011,41.174,39.921,42.690,39.263,39.923,38.265
6.086,44.196,42.320,40.426,41.025,41.207,43.525,39.683
6.094,49.438,48.836,48.040,50.015,49.761,47.450,52.701
6.102,60.341,61.059,60.339,61.810,62.703,63.125,63.939
6.109,72.220,74.513,75.975,73.923,73.032,71.489,73.187
6.117,77.189,77.258,78.053,78.695,76.388,78.402,79.743
6.125,74.813,72.663,75.487,72.874,75.071,73.429,77.075
6.133,66.481,68.531,68.551,67.336,66.468,67.335,67.555
6.141,60.348,60.527,64.775,61.476,61.628,61.411,61.179
6.148,61.223,59.970,57.103,55.788,58.061,59.540,59.986
6.156,57.500,53.730,57.143,54.266,57.091,53.265,54.618
6.164,47.044,50.010,49.056,50.466,51.578,50.411,50.456
6.172,39.733,44.451,40.350,42.505,44.873,40.041,42.905
6.180,37.884,36.948,35.514,35.656,35.401,39.287,38.581
6.188,36.823,36.952,36.933,37.677,40.131,39.827,37.347
6.195,46.831,44.508,43.695,46.032,46.608,47.539,48.368
6.203,59.439,53.976,56.427,55.120,54.758,53.990,56.879
6.211,64.916,63.787,62.450,61.660,63.028,65.348,64.538
6.219,63.214,62.852,63.094,63.414,64.551,62.667,64.374
6.227,59.254,56.375,56.127,56.968,58.533,60.352,56.505
6.234,49.504,51.454,51.057,49.154,50.449,50.367,47.977
6.242,43.529,45.723,44.983,42.744,44.439,45.504,41.886
6.250,40.237,36.609,40.488,38.271,39.342,38.225,40.603
6.258,31.540,33.935,31.364,32.127,30.381,31.378,31.922
6.266,27.306,25.471,27.835,28.586,27.978,28.204,26.678
6.273,17.169,18.230,16.300,19.407,21.570,20.061,20.362
6.281,15.040,15.181,13.475,12.697,12.025,14.736,13.655
6.289,16.007,14.519,16.292,18.334,13.191,14.682,15.091
6.297,26.582,26.906,26.151,23.716,23.291,22.016,26.232
6.305,37.097,32.220,35.080,34.722,33.722,34.437,35.255
6.312,42.530,42.008,39.334,38.902,40.055,41.277,39.930
6.320,38.359,39.984,43.428,42.899,42.487,39.234,41.097
6.328,36.461,34.491,36.517,36.466,34.529,37.264,37.560
6.336,28.918,30.085,28.600,26.167,29.409,27.948,25.238
6.344,21.495,20.830,25.071,22.815,22.205,25.691,22.563
6.352,18.869,19.055,17.226,18.584,16.681,16.670,17.762
6.359,15.245,14.669,13.820,14.253,15.743,15.701,17.962
6.367,11.291,9.287,11.343,10.706,10.554,8.785,11.904
6.375,4.814,5.897,4.865,6.941,2.979,2.601,4.116
6.383,4.902,3.928,2.802,3.203,4.998,0.438,0.961
6.391,8.840,10.255,10.854,6.995,8.917,6.091,9.773
6.398,22.733,18.147,18.878,19.136,20.007,20.648,20.871
6.406,30.858,31.710,32.594,31.018,32.286,31.932,29.174
6.414,38.334,38.939,41.566,38.356,41.704,42.119,37.477
6.422,42.106,41.183,38.652,40.530,38.167,43.120,39.928
6.430,38.387,35.710,38.779,34.228,35.248,38.283,35.023
6.438,30.789,33.844,29.834,28.674,30.466,29.836,32.152
6.445,28.624,27.477,28.243,26.251,31.003,30.733,29.200
6.453,29.939,26.569,25.469,27.926,26.749,26.754,30.811
6.461,25.840,24.251,25.894,24.986,28.865,27.941,26.323
6.469,23.925,23.140,22.692,21.990,23.619,23.008,22.350
6.477,17.994,16.679,17.023,21.861,21.117,20.147,20.764
6.484,19.945,19.741,22.750,21.243,18.515,21.123,18.788
6.492,27.063,28.796,29.863,29.407,26.415,31.319,30.754
6.500,42.976,41.724,42.913,39.259,41.426,40.219,39.653
6.508,55.453,55.807,55.602,56.615,54.907,55.804,52.743
6.516,64.220,61.587,62.056,61.932,60.264,61.119,63.299
6.523,65.510,63.422,63.969,62.285,62.387,62.732,64.375
6.531,60.011,57.922,58.291,59.129,58.689,59.023,59.801
6.539,54.648,55.196,55.815,55.353,53.529,56.214,52.549
6.547,51.970,51.681,51.226,52.549,53.560,52.754,52.903
6.555,49.344,50.249,50.119,49.524,48.106,52.611,50.261
6.562,51.375,48.622,50.945,48.731,48.876,49.986,46.894
6.570,45.694,45.970,42.108,45.871,45.177,42.375,43.305
6.578,37.746,41.916,41.964,39.890,43.001,41.031,42.302
6.586,40.078,42.803,40.692,42.247,41.243,44.467,43.769
6.594,52.122,51.017,49.152,50.402,50.164,51.616,47.992
6.602,63.640,61.960,61.914,65.219,64.226,61.159,60.944
6.609,74.902,75.364,73.356,71.660,74.198,74.414,73.698
6.617,78.929,78.432,78.034,76.210,79.404,79.689,79.730
6.625,74.405,75.896,77.238,76.001,74.150,76.554,75.240
6.633,70.719,66.607,69.282,70.219,67.148,69.987,69.444
6.641,62.561,62.686,61.267,62.370,62.231,62.958,60.484
6.648,57.840,60.795,57.243,58.277,58.059,58.024,57.385
6.656,57.634,56.785,56.648,52.905,54.863,53.636,54.793
6.664,49.754,50.533,47.194,47.731,51.220,50.707,50.122
6.672,43.539,41.337,42.609,45.434,42.171,40.560,41.919
6.680,35.363,37.859,35.409,35.956,35.472,36.182,35.172
6.688,38.955,39.265,37.405,37.482,38.245,37.857,38.131
6.695,45.124,44.470,44.028,44.500,46.513,44.490,47.988
6.703,53.274,57.513,57.253,57.671,54.627,53.890,53.779
6.711,63.771,65.809,63.063,63.203,64.198,65.021,61.968
6.719,63.061,64.910,65.833,63.535,66.663,63.391,62.851
6.727,58.298,60.251,55.497,55.791,57.209,57.356,60.045
6.734,49.983,49.021,53.541,51.029,48.271,48.526,48.094
6.742,42.304,45.687,45.367,43.357,45.969,43.207,40.906
6.750,38.769,38.848,40.217,40.858,38.244,39.420,40.235
6.758,35.150,32.036,33.649,33.475,33.859,32.557,32.428
6.766,27.716,27.074,24.582,23.932,28.811,24.733,26.000
6.773,20.044,21.255,18.989,20.367,18.932,20.534,17.677
6.781,12.540,11.929,15.495,12.779,15.246,16.047,16.710
6.789,15.362,15.779,14.602,15.368,14.914,15.053,17.173
6.797,24.167,25.601,24.270,25.748,22.492,22.642,22.938
6.805,32.152,34.895,33.761,34.322,35.082,35.968,35.110
6.812,39.693,40.277,40.246,39.335,42.961,44.253,40.287
6.820,42.915,39.544,42.275,41.831,43.188,42.010,40.877
6.828,34.248,34.731,34.500,36.131,37.982,35.711,35.786
6.836,27.124,29.192,30.310,31.260,25.419,25.856,29.956
6.844,21.326,25.513,23.706,22.988,23.421,24.130,21.750
6.852,18.097,19.748,19.922,18.572,16.846,17.836,18.462
6.859,15.554,18.426,16.349,15.899,17.797,15.723,17.340
6.867,10.953,11.062,9.710,11.761,11.363,11.862,8.805
6.875,5.199,3.263,6.869,6.906,5.107,5.675,7.164
6.883,3.378,4.852,5.264,2.890,2.122,5.322,2.292
6.891,7.169,6.767,10.000,9.904,6.207,6.953,9.908
6.898,19.477,21.838,22.571,20.538,22.590,20.299,17.953
6.906,33.529,31.629,31.023,32.876,32.451,29.919,31.449
6.914,41.918,40.712,39.206,40.637,38.615,38.633,40.252
6.922,40.994,40.541,41.265,39.838,41.447,41.956,37.724
6.930,36.939,36.415,37.138,34.130,36.737,37.558,34.731
6.938,34.400,30.097,33.835,33.100,33.343,31.711,30.882
6.945,29.202,26.428,28.405,28.812,27.371,28.443,28.057
6.953,27.507,27.342,25.960,29.506,28.004,26.239,28.884
6.961,28.061,23.988,23.540,28.323,28.944,27.573,25.656
6.969,24.549,23.342,24.419,22.127,25.295,21.854,23.992
6.977,17.313,20.793,21.128,19.925,18.684,18.213,17.958
6.984,17.869,22.501,18.656,20.453,17.841,19.363,23.087
6.992,27.600,28.270,29.700,28.036,27.134,26.407,27.434
7.000,42.379,39.617,43.532,39.756,42.235,41.642,41.119
7.008,54.228,54.753,53.077,52.597,54.034,53.690,52.810
7.016,59.219,63.296,62.424,61.986,63.286,63.014,63.346
7.023,59.972,64.675,60.780,63.348,63.866,60.996,60.346
7.031,55.890,59.271,59.712,60.292,57.392,60.029,60.671
7.039,55.851,54.045,53.460,51.345,53.175,53.999,55.147
7.047,54.214,50.804,53.243,52.586,50.918,55.340,52.855
7.055,53.948,53.208,50.859,53.796,52.079,52.485,49.511
7.062,50.578,48.414,51.126,48.136,46.260,48.553,45.652
7.070,43.554,44.262,44.644,45.464,41.268,42.227,44.416
7.078,40.629,42.607,42.745,37.843,42.396,42.492,41.387
7.086,41.323,40.289,41.180,41.074,42.653,41.487,43.086
7.094,47.652,50.362,51.060,48.347,48.942,50.790,52.306
7.102,61.450,61.432,63.842,65.198,60.946,65.470,63.074
7.109,75.505,72.156,74.311,73.244,74.378,72.286,75.707
7.117,75.785,79.539,78.586,75.221,75.305,78.433,79.893
7.125,75.635,74.882,77.033,72.786,74.337,76.968,77.016
7.133,67.815,69.816,68.172,70.075,68.414,68.709,67.775
7.141,62.241,65.503,60.559,62.337,62.325,64.328,60.555
7.148,59.447,56.309,60.229,56.738,58.714,59.184,60.313
7.156,54.833,55.801,54.373,56.552,58.043,52.735,56.763
7.164,48.441,50.731,48.635,49.519,50.062,52.233,47.236
7.172,42.714,42.585,42.761,40.377,43.781,45.210,44.396
7.180,37.784,36.496,38.573,40.789,36.136,39.562,38.543
7.188,39.164,37.123,38.236,39.917,37.635,39.810,38.205
7.195,45.995,48.242,46.008,47.541,46.800,42.354,42.926
7.203,54.301,54.584,55.687,56.185,52.800,58.868,56.972
7.211,62.825,62.169,63.562,63.984,63.956,62.436,62.268
7.219,61.556,62.043,64.531,66.528,63.141,62.915,64.496
7.227,57.988,59.145,55.141,56.978,58.333,56.488,58.749
7.234,51.970,48.907,50.801,48.380,49.433,49.212,52.415
7.242,45.536,40.884,40.555,42.475,45.341,42.897,42.560
7.250,36.967,38.274,37.691,39.075,39.870,36.702,38.483
7.258,35.790,32.299,32.416,34.927,32.578,33.241,33.411
7.266,25.051,26.070,26.202,24.152,24.461,26.640,25.212
7.273,18.762,16.889,20.541,17.360,18.020,18.854,19.457
7.281,15.395,15.048,15.524,12.161,14.739,13.752,16.406
7.289,15.018,18.102,14.728,14.942,16.063,18.908,17.079
7.297,22.941,24.337,24.285,24.042,23.411,24.338,24.999
7.305,33.832,32.156,34.418,34.624,34.942,35.933,32.326
7.312,40.771,43.080,42.814,39.837,41.380,43.026,40.522
7.320,38.998,41.194,41.177,39.204,39.444,42.892,42.199
7.328,33.636,37.521,32.614,35.664,32.613,33.571,36.914
7.336,28.245,26.875,25.419,25.527,25.568,28.386,27.994
7.344,22.465,23.856,21.247,21.578,20.488,19.864,23.482
7.352,21.271,21.942,19.758,21.248,19.769,19.310,21.042
7.359,13.264,16.824,16.295,14.923,17.400,14.128,16.893
7.367,10.151,8.198,8.803,11.731,8.081,10.900,8.424
7.375,4.883,4.536,7.455,3.952,6.844,6.555,3.002
7.383,5.215,4.602,4.468,5.232,5.346,1.401,1.985
7.391,9.872,5.770,8.768,11.155,10.291,9.701,10.924
7.398,20.674,19.549,19.144,19.039,21.439,19.920,20.986
7.406,30.899,33.065,29.142,33.403,30.434,30.529,31.278
7.414,38.735,40.142,40.769,40.191,41.472,39.929,38.054
7.422,41.782,38.706,41.086,38.786,40.921,41.197,42.220
7.430,36.363,35.254,34.517,38.056,37.104,36.795,33.597
7.438,33.264,31.662,32.394,29.645,30.386,30.035,33.394
7.445,29.721,26.731,26.301,30.920,32.490,30.043,32.014
7.453,26.584,26.440,28.468,27.665,29.695,30.220,27.353
7.461,26.039,25.887,26.283,24.407,27.752,29.272,28.412
7.469,22.750,20.728,23.719,21.926,23.105,22.741,23.657
7.477,18.418,20.842,19.374,16.848,20.902,18.347,18.460
7.484,20.679,18.633,22.240,22.373,19.659,18.276,21.903
7.492,28.556,26.500,30.538,29.680,26.231,26.567,30.159
7.500,40.753,41.753,38.804,42.655,43.898,39.764,44.077
7.508,52.134,54.395,55.272,54.733,55.289,53.233,52.691
7.516,61.153,61.383,59.696,65.088,62.578,60.093,63.705
7.523,60.266,63.948,62.224,61.126,61.197,62.244,65.354
7.531,57.490,60.112,59.002,60.925,58.173,60.461,59.800
7.539,54.766,56.688,53.009,55.757,53.247,52.600,56.648
7.547,52.312,49.422,50.067,54.103,52.340,53.134,54.353
7.555,53.263,52.537,51.602,49.624,51.495,52.816,49.509
7.562,51.529,48.124,48.512,47.554,48.610,48.836,49.673
7.570,45.682,45.210,44.490,44.651,45.975,44.076,43.779
7.578,38.921,42.049,37.950,40.741,41.334,42.364,39.456
7.586,44.207,39.960,39.934,39.701,40.599,41.173,40.156
7.594,49.496,51.515,48.715,53.587,48.129,50.489,50.232
7.602,63.206,62.398,60.875,60.264,61.486,63.309,62.778
7.609,70.883,73.778,74.864,72.185,73.396,71.671,73.673
7.617,78.558,78.913,77.372,79.132,79.931,74.884,78.963
7.625,77.017,74.446,73.163,74.648,73.024,75.835,74.220
7.633,69.333,66.525,66.561,70.136,69.296,66.400,68.636
7.641,64.665,62.305,61.777,62.434,61.718,63.644,64.094
7.648,57.286,59.012,61.998,57.741,57.472,57.700,56.287
7.656,55.496,53.653,58.089,57.196,55.069,54.996,56.101
7.664,50.545,51.133,50.815,51.555,50.200,48.213,51.037
7.672,40.696,43.898,44.229,45.435,42.999,42.663,41.180
7.680,36.813,35.995,38.089,39.874,38.036,36.129,35.573
7.688,37.746,37.091,35.730,39.990,36.615,38.267,40.293
7.695,46.239,45.675,46.652,46.522,43.517,46.597,46.980
7.703,55.521,56.170,53.874,55.665,55.632,56.510,57.829
7.711,61.472,62.188,62.020,64.333,63.460,62.877,60.196
7.719,62.532,63.503,62.779,63.540,62.195,63.516,65.769
7.727,60.341,56.254,56.086,59.661,58.477,58.339,59.176
7.734,49.564,53.505,50.427,50.083,50.770,49.496,51.368
7.742,45.122,44.183,42.505,44.154,41.558,44.353,42.047
7.750,38.718,39.217,34.954,39.227,39.126,41.079,40.591
7.758,35.619,30.889,33.180,34.754,33.905,35.655,34.319
7.766,28.673,28.349,26.714,26.244,25.397,24.978,25.074
7.773,17.329,18.733,18.469,20.437,16.019,19.016,21.161
7.781,13.897,13.192,14.896,15.022,13.669,13.507,12.196
7.789,14.528,15.631,18.177,13.020,13.975,15.665,15.855
7.797,21.595,25.268,24.722,24.136,21.250,21.526,23.012
7.805,33.009,35.769,35.466,36.453,32.781,36.097,35.041
7.812,40.120,41.354,39.734,42.233,43.607,42.133,42.040
7.820,42.939,41.326,39.150,41.413,39.064,41.114,39.702
7.828,35.655,35.733,35.075,33.802,32.873,35.346,35.585
7.836,27.345,27.009,27.236,28.451,28.669,29.085,28.473
7.844,20.507,21.297,22.702,22.537,21.503,23.885,20.668
7.852,20.391,19.792,19.934,18.666,21.498,21.945,19.653
7.859,17.003,14.610,15.112,13.835,15.411,16.798,15.617
7.867,8.924,11.456,10.567,11.837,8.677,9.408,12.155
7.875,2.737,2.216,3.601,4.493,4.354,4.496,4.548
7.883,2.453,0.993,1.527,2.018,1.135,4.065,3.174
7.891,10.618,7.999,8.933,6.860,6.715,7.527,7.306
7.898,22.114,20.557,22.848,20.960,19.414,17.368,19.034
7.906,28.962,31.822,33.714,32.169,33.130,31.141,29.846
7.914,41.307,37.935,42.373,40.073,40.084,37.857,41.340
7.922,40.361,38.816,38.258,39.518,41.517,42.023,38.312
7.930,37.163,35.784,35.454,36.621,39.311,36.660,35.094
7.938,29.508,28.928,29.136,32.414,30.526,30.734,29.199
7.945,28.391,29.666,28.649,29.380,28.846,31.052,28.314
7.953,29.219,28.103,29.878,26.582,29.074,27.214,29.136
7.961,27.252,23.067,26.491,27.345,23.920,25.478,25.967
7.969,25.271,23.721,22.833,24.703,22.072,19.834,23.571
7.977,20.179,19.192,21.901,21.548,18.559,19.661,17.427
7.984,20.993,21.821,18.164,20.674,19.148,22.875,20.355
7.992,27.327,26.902,28.346,30.150,27.930,26.654,30.240
8.000,41.079,41.628,41.086,43.719,44.166,40.339,43.650
8.008,55.112,55.162,55.001,55.283,54.035,53.766,54.945
8.016,61.305,64.487,59.877,60.310,63.290,64.525,63.785
8.023,61.655,64.052,59.632,60.238,63.659,62.064,60.211
8.031,56.548,59.272,57.028,58.331,60.662,56.315,57.663
8.039,53.952,51.743,54.978,53.969,54.937,54.295,55.313
8.047,53.378,51.187,53.368,52.528,51.204,52.491,51.841
8.055,51.532,50.094,48.782,49.173,51.795,49.164,52.586
8.062,46.547,49.236,49.202,48.321,51.566,50.149,46.830
8.070,44.739,45.293,46.155,44.024,42.923,45.135,46.137
8.078,39.051,40.693,42.283,41.801,41.577,40.457,41.319
8.086,42.849,43.729,42.231,40.549,40.383,43.672,40.261
8.094,47.914,51.665,51.963,51.070,52.268,49.417,52.863
8.102,62.523,63.294,62.682,61.428,63.016,63.253,63.031
8.109,70.638,72.710,73.172,71.545,71.482,72.734,71.714
8.117,77.374,76.281,79.502,75.434,77.679,79.610,79.269
8.125,74.255,75.672,73.380,75.261,75.168,73.004,76.321
8.133,67.985,67.436,67.171,66.910,68.831,66.288,70.384
8.141,61.759,63.497,61.060,63.908,65.331,65.025,64.999
8.148,59.600,59.803,61.031,59.823,61.240,60.937,59.330
8.156,53.169,56.233,56.291,54.711,55.544,54.240,54.628
8.164,48.890,51.544,51.215,51.756,50.688,51.388,49.518
8.172,44.348,42.837,41.570,42.864,44.879,43.230,40.990
8.180,39.513,37.941,37.426,37.304,39.091,39.143,38.342
8.188,37.717,40.858,37.701,38.194,39.582,38.591,38.353
8.195,47.846,45.150,46.990,43.167,46.772,47.703,44.085
8.203,59.074,54.659,54.603,56.871,56.010,54.309,54.796
8.211,66.173,65.698,62.223,63.656,63.254,62.340,65.078
8.219,64.964,67.032,63.099,61.483,66.602,62.056,62.691
8.227,58.484,60.531,58.512,60.131,61.426,57.199,59.091
8.234,49.212,50.864,49.551,47.238,47.784,52.677,48.486
8.242,45.139,42.541,43.633,42.976,44.721,43.802,46.075
8.250,39.919,38.566,37.420,37.400,38.864,39.789,39.821
8.258,32.308,35.488,32.505,35.578,34.955,34.469,33.068
8.266,27.713,25.926,24.704,27.860,26.456,23.927,27.509
8.273,20.720,18.633,15.881,17.976,16.962,16.978,18.513
8.281,14.867,12.570,13.966,12.242,15.657,16.166,14.826
8.289,15.651,15.789,16.404,16.450,18.754,15.950,17.490
8.297,23.679,22.893,23.224,24.982,23.314,25.061,22.126
8.305,33.330,36.326,33.110,35.942,34.641,34.199,33.987
8.312,39.097,42.314,40.587,41.268,39.782,44.186,40.620
8.320,41.461,39.332,38.834,42.801,43.600,39.242,39.499
8.328,35.875,36.127,36.353,36.922,35.865,35.782,37.691
8.336,28.947,29.647,29.990,27.413,26.422,30.060,28.869
8.344,21.176,21.715,25.155,24.102,20.924,21.573,22.890
8.352,19.907,21.954,19.767,21.316,19.734,21.024,20.726
8.359,13.705,13.432,13.729,14.216,14.195,14.944,15.629
8.367,11.463,8.193,9.780,11.309,12.600,12.559,10.104
8.375,6.952,3.641,4.405,5.351,3.832,2.711,2.574
8.383,4.094,2.293,1.225,0.635,4.920,3.925,2.359
8.391,7.629,9.341,6.795,11.079,10.364,6.367,8.155
8.398,21.399,19.431,17.146,19.364,18.823,20.466,20.162
8.406,32.706,30.419,29.625,32.273,29.611,32.918,28.547
8.414,39.592,37.877,38.155,37.725,40.603,39.148,40.370
8.422,40.413,40.147,42.051,42.524,41.190,42.179,41.558
8.430,37.094,35.414,35.286,36.286,38.283,34.670,36.923
8.438,31.301,33.090,33.293,31.364,30.310,29.963,31.039
8.445,30.805,26.784,30.062,31.798,29.837,28.176,28.200
8.453,26.654,29.714,29.406,29.565,24.691,28.246,30.312
8.461,25.603,24.987,28.211,27.823,24.712,28.727,28.950
8.469,20.560,21.062,23.468,24.112,24.167,21.376,24.840
8.477,18.904,20.095,16.324,21.004,18.049,17.978,20.371
8.484,19.339,21.297,21.729,20.998,22.539,19.302,20.722
8.492,27.001,27.838,29.783,26.505,25.399,31.356,27.760
8.500,42.089,42.873,41.159,45.105,43.082,40.824,43.221
8.508,52.540,55.175,53.223,58.135,53.646,56.436,54.017
8.516,64.685,63.194,61.540,64.037,60.302,59.491,64.604
8.523,60.488,59.692,60.175,62.553,61.317,63.607,63.597
8.531,58.930,60.375,59.184,58.224,57.039,58.815,61.057
8.539,55.031,54.544,52.925,53.968,56.781,51.893,55.532
8.547,50.126,54.394,55.534,55.065,49.824,52.747,55.049
8.555,51.292,53.999,52.989,53.998,53.691,49.521,53.084
8.562,47.100,47.900,49.940,50.210,49.115,48.517,47.622
8.570,46.795,41.235,44.994,43.418,44.877,42.837,42.427
8.578,42.182,38.588,39.376,41.219,39.668,39.966,39.078
8.586,41.628,42.298,40.888,42.276,41.888,41.611,44.659
8.594,51.107,51.064,51.730,52.210,48.735,50.524,50.731
8.602,63.472,64.821,60.628,64.715,61.812,63.339,62.558
8.609,73.573,71.771,74.824,73.809,71.360,72.255,74.797
8.617,78.838,77.438,76.182,79.715,79.061,75.363,79.186
8.625,75.633,73.240,73.975,73.610,75.702,74.925,75.322
8.633,69.283,68.056,69.500,69.280,70.209,67.925,69.828
8.641,63.129,63.455,61.118,62.297,61.294,60.527,63.319
8.648,60.204,59.191,57.969,58.952,57.452,59.410,56.534
8.656,55.420,56.509,54.124,56.750,53.616,54.491,53.879
8.664,51.303,48.681,51.102,49.133,49.953,49.381,52.589
8.672,43.091,42.901,41.890,41.037,43.296,43.161,44.100
8.680,38.809,36.822,34.757,37.054,36.528,35.237,39.014
8.688,38.772,40.057,38.947,36.738,39.310,39.054,38.266
8.695,45.412,46.712,45.955,46.523,48.475,46.918,43.819
8.703,57.038,53.808,58.132,56.908,54.219,56.760,55.915
8.711,65.061,64.805,65.749,65.509,65.601,62.534,63.024
8.719,64.378,65.885,65.116,63.113,63.418,61.732,64.110
8.727,57.216,57.085,56.469,55.984,58.143,56.731,58.577
8.734,50.896,49.944,50.329,51.981,50.502,46.843,53.333
8.742,44.942,43.361,45.450,45.433,42.252,42.660,43.320
8.750,40.406,40.102,38.246,40.201,41.458,39.613,39.349
8.758,33.369,32.338,32.941,32.953,34.899,32.482,35.376
8.766,26.729,28.323,26.605,25.095,26.342,28.039,27.343
8.773,19.010,17.463,20.981,22.149,20.063,20.095,18.912
8.781,14.383,14.044,12.961,14.278,12.471,14.926,14.752
8.789,14.492,15.737,13.461,15.516,13.700,13.691,17.143
8.797,26.708,25.083,23.297,23.357,26.560,25.534,24.752
8.805,36.652,34.669,34.268,35.349,32.795,34.827,37.826
8.812,42.283,42.531,41.969,41.965,41.132,40.662,39.439
8.820,43.384,41.320,41.805,42.250,40.608,42.407,39.009
8.828,36.449,34.815,35.052,33.671,37.463,36.728,37.390
8.836,26.410,25.318,29.022,29.009,28.934,27.316,27.868
8.844,21.106,21.230,25.002,19.966,23.849,21.367,20.488
8.852,18.808,18.864,17.754,19.462,17.254,17.580,18.110
8.859,17.955,17.959,18.273,14.181,16.103,18.137,17.276
8.867,9.307,10.314,11.723,9.650,11.618,9.807,9.216
8.875,3.733,6.066,6.019,2.510,5.137,5.694,7.062
8.883,2.148,3.334,2.041,2.126,1.317,3.150,5.609
8.891,10.499,8.620,7.601,7.007,8.471,9.311,9.308
8.898,17.820,17.387,21.956,20.225,19.113,21.493,20.446
8.906,30.368,34.521,34.155,30.471,33.488,29.870,31.440
8.914,38.373,39.108,39.769,42.173,40.614,41.587,41.863
8.922,38.076,43.406,39.679,42.687,41.153,40.942,42.534
8.930,37.581,36.848,38.015,35.433,34.281,37.411,35.147
8.938,31.931,34.269,33.810,29.477,30.174,31.447,30.389
8.945,32.147,30.223,26.425,29.880,30.737,31.210,27.736
8.953,27.453,27.061,26.669,29.244,29.609,26.235,26.330
8.961,25.504,28.138,26.314,28.632,26.250,27.153,24.647
8.969,23.660,20.996,24.886,23.896,21.513,20.851,23.036
8.977,21.698,17.243,20.354,16.366,20.687,18.626,18.231
8.984,20.304,21.995,21.120,20.766,19.831,22.021,21.362
8.992,28.550,29.452,27.668,26.710,28.066,30.937,27.896
9.000,42.960,43.334,43.909,41.969,43.557,39.728,43.149
9.008,56.116,55.440,53.954,53.856,58.169,55.268,54.138
9.016,60.739,63.010,60.395,62.978,60.332,59.924,62.121
9.023,60.785,63.437,62.882,60.885,60.227,64.409,64.516
9.031,58.523,59.147,56.411,59.442,55.986,58.977,58.760
9.039,54.832,52.346,51.919,55.941,54.683,53.202,53.298
9.047,52.363,54.122,53.851,48.961,50.599,50.741,50.235
9.055,50.883,50.017,50.793,51.668,52.543,53.634,49.087
9.062,46.626,48.749,47.708,49.464,51.333,49.058,51.584
9.070,42.621,46.671,42.806,44.816,43.206,41.737,44.164
9.078,42.729,41.222,42.487,41.124,42.265,40.457,38.816
9.086,44.657,40.085,40.720,44.321,42.846,41.384,42.363
9.094,51.104,51.257,52.402,48.661,47.884,50.421,51.253
9.102,61.181,60.642,60.371,63.202,62.013,62.614,64.168
9.109,75.572,72.760,71.911,73.192,74.152,73.228,73.640
9.117,78.866,75.317,79.370,79.005,77.760,78.348,79.299
9.125,76.967,76.344,72.778,72.728,74.298,76.030,74.196
9.133,68.426,68.829,66.651,68.739,68.471,67.173,66.839
9.141,63.484,63.537,64.587,64.699,59.705,60.634,60.540
9.148,57.365,57.703,58.442,56.873,60.499,59.771,59.531
9.156,54.549,54.373,57.553,56.137,54.904,53.390,55.298
9.164,52.631,47.731,50.733,48.335,49.482,51.509,51.642
9.172,40.291,41.984,40.414,42.084,44.756,44.293,43.036
9.180,37.619,38.494,36.339,38.914,37.556,36.286,38.982
9.188,40.154,37.162,39.594,40.183,38.115,38.417,39.621
9.195,45.621,44.802,48.419,47.742,44.545,44.999,46.919
9.203,54.197,54.121,52.688,55.114,56.012,54.674,55.216
9.211,65.130,65.715,64.977,64.633,62.226,65.588,63.905
9.219,62.713,63.644,65.976,62.748,61.048,62.367,65.698
9.227,56.648,58.508,58.034,57.002,57.817,56.847,58.046
9.234,49.672,49.499,52.668,52.658,51.289,50.953,50.367
9.242,46.259,45.913,45.622,43.657,41.397,43.169,42.781
9.250,40.315,36.540,38.727,39.015,39.893,39.356,37.885
9.258,35.602,34.739,33.660,35.606,31.837,34.290,32.393
9.266,24.774,24.251,29.309,30.175,27.086,25.589,28.194
9.273,20.138,19.798,17.150,18.886,16.673,18.601,19.732
9.281,15.364,13.766,12.546,13.656,16.064,16.022,14.374
9.289,15.789,13.711,18.179,16.553,15.524,16.260,12.801
9.297,22.943,26.433,25.412,23.860,26.940,27.650,24.286
9.305,34.914,33.575,35.472,35.631,37.796,33.959,33.882
9.312,39.305,41.257,41.044,42.843,43.621,44.007,39.316
9.320,42.316,38.430,41.401,38.393,41.254,40.759,40.015
9.328,33.715,34.345,33.332,35.706,33.546,35.810,32.848
9.336,25.960,28.092,28.703,28.098,29.574,30.392,30.346
9.344,20.535,21.277,21.875,23.093,20.855,23.294,23.516
9.352,18.607,17.141,20.754,20.570,20.416,18.810,20.615
9.359,17.500,17.168,16.007,14.427,13.014,17.089,13.223
9.367,11.765,8.553,12.476,8.341,9.176,10.949,12.290
9.375,2.891,5.483,5.948,4.936,5.664,4.684,5.464
9.383,1.550,3.518,2.899,4.866,2.328,3.196,4.073
9.391,10.909,8.964,8.079,9.191,9.539,6.363,7.911
9.398,19.568,18.776,16.949,18.065,20.455,20.451,18.366
9.406,32.669,32.451,33.082,32.040,33.060,33.334,34.368
9.414,39.428,40.576,38.634,38.789,39.614,38.006,39.238
9.422,40.170,38.401,41.867,40.173,38.661,38.257,40.435
9.430,38.558,38.767,38.694,36.617,36.430,38.782,36.452
9.438,33.644,30.222,31.841,28.561,34.004,33.399,31.408
9.445,30.094,27.604,30.914,26.950,28.936,29.963,30.643
9.453,28.960,27.720,27.533,28.296,28.402,25.322,27.653
9.461,25.117,25.913,26.893,29.068,27.234,28.852,26.334
9.469,23.066,22.017,22.217,21.225,20.967,21.186,24.857
9.477,20.895,18.658,17.396,17.608,20.668,17.695,17.367
9.484,17.637,20.840,21.943,19.350,21.742,18.930,19.148
9.492,26.841,27.578,27.813,30.224,30.282,26.153,27.614
9.500,38.446,42.984,40.369,43.054,41.329,39.679,39.643
9.508,56.626,51.907,52.919,52.512,52.827,51.543,57.845
9.516,61.908,61.907,61.740,64.327,61.469,62.530,63.427
9.523,60.149,64.325,63.677,62.989,62.083,63.712,62.024
9.531,57.428,60.530,58.587,57.649,58.358,58.284,56.157
9.539,53.504,53.885,54.966,54.200,54.646,55.128,54.255
9.547,51.837,52.875,51.410,52.844,50.901,51.514,54.378
9.555,52.485,52.613,50.587,49.872,51.171,53.124,48.896
9.562,48.549,46.556,47.525,48.307,47.909,46.869,46.834
9.570,45.308,41.765,44.153,43.936,44.580,44.673,45.273
9.578,37.643,39.360,43.103,37.629,42.391,42.709,39.780
9.586,43.295,41.128,40.000,43.221,44.261,40.796,43.764
9.594,49.665,52.056,50.684,48.309,53.811,48.089,50.699
9.602,61.627,64.423,61.300,62.261,63.446,63.052,62.091
9.609,75.800,74.209,72.072,73.225,75.698,70.765,71.464
9.617,77.771,76.000,80.269,76.469,76.671,78.921,76.166
9.625,76.671,73.618,74.012,75.841,72.203,72.238,74.418
9.633,68.657,67.169,67.810,69.988,69.579,68.366,69.410
9.641,64.424,65.178,62.655,63.199,61.148,59.948,61.394
9.648,59.137,56.089,59.796,58.132,58.502,58.672,58.627
9.656,55.175,57.443,56.874,53.253,53.866,57.712,56.653
9.664,51.315,49.853,47.002,51.716,50.355,50.957,51.539
9.672,43.266,43.711,42.918,41.248,41.102,42.261,40.945
9.680,35.352,39.673,36.582,37.667,38.214,38.324,35.660
9.688,36.724,38.099,38.876,39.165,38.194,36.509,40.168
9.695,43.880,46.552,43.810,46.042,46.111,46.335,45.076
9.703,56.456,54.084,54.143,55.720,57.278,54.833,56.863
9.711,62.817,65.051,65.430,65.462,65.579,62.592,62.000
9.719,64.326,64.383,65.525,67.112,62.882,62.427,63.993
9.727,59.536,59.198,60.900,57.992,60.201,56.634,61.233
9.734,48.861,51.549,52.088,51.092,48.055,50.294,48.896
9.742,41.653,45.204,41.431,40.107,41.764,45.155,41.714
9.750,40.590,35.256,37.156,42.245,37.891,40.736,36.185
9.758,31.642,32.808,31.753,34.058,32.896,34.839,32.823
9.766,29.424,29.132,26.781,27.129,26.956,26.540,28.995
9.773,16.633,18.053,21.193,17.838,18.862,17.145,18.293
9.781,12.610,16.081,13.865,12.411,16.602,14.136,12.539
9.789,18.332,17.370,14.384,13.741,16.981,17.979,19.072
9.797,26.682,24.483,25.961,25.157,24.352,25.985,24.797
9.805,32.606,31.515,35.680,35.351,32.967,35.121,35.045
9.812,42.612,38.556,39.916,41.578,40.445,43.704,41.719
9.820,41.380,40.845,41.500,43.105,39.287,40.016,40.330
9.828,34.435,33.299,33.105,36.727,34.893,37.007,37.073
9.836,28.979,28.618,28.393,28.929,26.310,30.137,30.930
9.844,24.586,21.143,21.005,21.450,24.457,24.482,23.494
9.852,19.680,18.906,18.886,17.824,18.445,18.121,20.060
9.859,16.930,18.536,14.132,18.595,13.286,14.325,17.637
9.867,8.527,9.473,10.990,7.784,13.003,13.241,10.397
9.875,2.433,3.135,3.532,3.431,5.746,4.750,2.792
9.883,3.687,4.070,0.523,5.394,0.693,2.213,1.639
9.891,10.356,9.075,7.727,9.094,7.570,9.839,9.593
9.898,22.204,22.434,18.152,16.431,17.176,19.470,19.268
9.906,32.849,33.170,33.374,32.839,31.630,30.270,32.275
9.914,41.414,41.203,38.263,40.851,39.257,39.036,38.484
9.922,40.923,38.260,41.854,41.917,42.342,43.544,40.902
9.930,36.321,36.011,36.350,35.481,36.486,34.382,36.023
9.938,34.703,34.392,30.216,30.219,30.556,32.246,33.019
9.945,28.986,27.693,29.223,28.264,27.786,29.387,26.241
9.953,27.631,29.174,28.504,29.069,30.184,25.487,27.078
9.961,24.349,26.856,27.023,25.921,29.210,25.176,26.734
9.969,21.261,21.965,21.007,23.811,19.583,20.131,23.689
9.977,19.449,18.437,20.958,18.203,18.654,21.817,17.632
9.984,17.707,19.555,18.607,18.700,18.984,20.355,18.265
9.992,31.038,29.474,30.864,29.571,28.130,26.569,30.898
10.000,40.387,39.744,43.510,45.115,40.048,41.943,41.141
10.008,55.878,54.935,55.042,55.656,57.146,54.573,56.302
10.016,63.317,62.453,60.284,61.881,59.777,61.868,63.540
10.023,62.219,64.846,61.616,63.586,61.270,63.121,60.714
10.031,60.865,56.980,61.257,57.220,57.404,58.194,58.684
10.039,56.352,53.247,54.246,54.184,52.020,56.197,55.869
10.047,52.374,50.267,49.592,50.534,50.438,52.046,54.234
10.055,48.843,51.083,48.776,48.692,51.140,49.483,48.962
10.062,48.456,50.185,47.503,50.177,49.124,50.386,48.280
10.070,45.099,44.843,44.318,41.408,45.326,46.046,43.468
10.078,41.200,38.676,39.976,38.340,42.440,40.428,40.605
10.086,44.261,43.067,41.686,44.468,42.592,43.925,42.456
10.094,49.563,51.063,52.936,51.486,49.639,52.083,53.414
10.102,61.467,62.678,61.241,63.630,63.173,63.972,59.817
10.109,74.657,71.823,72.037,73.375,70.951,73.377,73.493
10.117,78.985,76.721,74.974,75.203,77.589,77.672,76.298
10.125,77.011,75.701,74.493,76.039,74.086,73.276,74.910
10.133,70.417,70.291,69.972,69.830,69.708,66.021,68.085
10.141,62.983,63.718,61.153,59.946,61.470,61.423,64.691
10.148,60.270,59.559,58.507,59.211,60.182,60.731,57.261
10.156,54.867,52.790,54.104,53.142,53.602,57.589,53.751
10.164,47.837,48.857,51.315,51.239,49.747,51.423,50.840
10.172,41.613,41.517,43.757,45.095,44.959,45.587,41.063
10.180,38.351,37.808,36.899,38.604,36.848,37.599,37.762
10.188,38.067,36.588,35.905,36.598,40.253,37.045,36.990
10.195,48.000,44.392,47.050,45.681,47.515,48.881,46.397
10.203,54.824,55.458,55.877,58.351,56.747,57.338,56.888
10.211,63.133,63.061,64.867,60.964,61.587,64.389,63.536
10.219,62.329,66.340,63.025,62.706,65.129,64.316,66.625
10.227,57.536,56.535,59.542,57.698,55.559,57.981,58.169
10.234,51.655,47.718,51.619,48.396,49.651,50.367,48.784
10.242,44.385,46.618,43.771,45.269,43.252,44.855,43.573
10.250,38.893,37.633,39.682,37.545,39.732,36.845,37.917
10.258,36.506,34.303,34.412,32.584,35.220,32.322,34.584
10.266,29.521,25.345,28.582,27.488,28.453,25.522,23.612
10.273,17.142,20.032,16.965,15.991,20.820,20.245,16.588
10.281,11.227,14.299,16.149,13.006,14.322,16.160,15.440
10.289,14.541,17.936,13.585,15.107,18.286,14.453,15.495
10.297,24.445,24.784,24.230,24.710,26.067,22.024,23.805
10.305,33.259,34.171,34.049,34.763,36.092,36.680,34.481
10.312,43.097,44.101,41.172,43.460,42.980,43.428,43.271
10.320,41.182,40.245,41.391,39.433,42.734,41.049,41.379
10.328,33.435,33.926,33.012,36.448,36.584,37.631,36.322
10.336,28.533,26.800,30.745,28.648,28.860,30.397,25.754
10.344,22.814,22.956,21.318,25.766,23.306,24.248,21.298
10.352,20.620,16.879,20.653,22.021,21.170,19.034,19.739
10.359,15.285,17.727,13.308,14.155,14.696,16.942,15.654
10.367,11.365,9.525,12.313,12.578,11.125,9.789,9.618
10.375,4.399,6.150,4.934,2.507,7.365,5.735,6.820
10.383,3.533,4.086,3.659,2.235,4.288,3.997,3.614
10.391,8.800,8.151,6.488,8.154,10.749,7.748,8.372
10.398,21.129,18.095,22.195,21.608,20.173,20.799,21.066
10.406,32.597,32.363,29.972,30.494,33.742,32.206,30.482
10.414,40.249,39.174,38.586,40.498,39.340,39.998,40.202
10.422,41.199,41.450,40.723,38.045,40.183,41.769,43.044
10.430,37.964,36.687,35.705,35.292,38.802,37.529,36.062
10.438,32.268,31.572,30.832,30.904,32.556,31.379,29.472
10.445,27.201,26.326,26.521,29.272,26.446,30.250,26.685
10.453,27.788,29.093,28.502,28.967,28.862,28.315,26.375
10.461,27.912,24.551,27.049,29.325,25.695,27.357,26.581
10.469,22.531,20.939,24.933,24.459,23.461,24.851,22.700
10.477,16.979,17.650,19.600,17.528,22.194,20.686,19.747
10.484,22.745,17.047,19.401,17.964,18.696,19.623,18.872
10.492,30.691,27.683,25.532,29.493,26.543,28.429,30.415
10.500,44.171,42.203,44.420,43.686,41.833,42.507,44.110
10.508,54.810,53.447,52.182,54.409,57.555,56.336,53.178
10.516,63.127,63.262,64.559,63.147,60.619,62.366,63.469
10.523,59.850,63.531,60.122,61.609,61.986,59.495,63.200
10.531,58.914,58.776,58.101,57.173,57.502,59.713,57.483
10.539,52.286,55.731,55.809,55.416,54.807,53.298,53.599
10.547,50.092,54.498,50.263,52.273,51.339,53.528,53.473
10.555,49.927,50.762,51.649,50.202,53.921,52.573,49.716
10.562,50.335,46.976,47.447,46.409,51.432,48.895,49.311
10.570,43.823,42.823,43.820,44.276,44.801,42.632,44.162
10.578,40.973,40.123,41.777,41.585,42.580,41.712,42.407
10.586,40.765,39.782,40.773,42.453,43.090,40.588,41.311
10.594,52.004,52.511,51.693,51.456,50.924,51.757,48.643
10.602,64.803,61.746,63.246,63.341,62.344,63.349,65.500
10.609,73.772,74.968,72.651,71.568,70.335,71.559,75.911
10.617,79.377,75.362,77.431,79.240,76.912,76.135,77.621
10.625,73.541,74.332,75.386,75.047,72.703,73.501,76.996
10.633,71.313,66.591,70.589,70.162,70.441,67.607,68.810
10.641,61.936,62.303,61.824,64.173,62.663,62.587,64.000
10.648,56.993,58.429,58.393,58.408,60.376,60.524,59.285
10.656,56.220,55.505,54.564,53.165,54.539,56.299,53.134
10.664,50.619,49.662,47.508,50.248,49.702,49.619,48.250
10.672,43.681,44.302,45.182,41.545,40.469,41.642,43.553
10.680,37.636,37.243,40.034,37.382,38.068,36.693,35.310
10.688,39.952,37.448,37.636,37.703,37.515,36.278,40.102
10.695,45.983,42.736,42.646,46.122,44.790,46.924,48.675
10.703,58.109,56.244,56.082,55.676,54.922,55.935,53.561
10.711,65.159,62.379,63.030,65.756,64.464,64.309,64.354
10.719,64.047,62.298,65.881,65.787,63.267,64.201,63.570
10.727,57.098,58.388,56.477,58.102,59.390,59.836,56.961
10.734,53.171,52.050,52.643,51.409,49.282,51.041,49.789
10.742,45.306,46.415,42.777,44.196,43.972,43.693,42.124
10.750,37.553,39.101,41.742,39.461,41.136,41.468,36.753
10.758,31.037,35.019,33.514,34.354,32.901,34.940,35.428
10.766,28.707,23.742,24.851,28.251,28.153,24.104,24.593
10.773,16.658,19.494,18.886,19.991,18.750,18.304,17.711
10.781,16.231,16.407,11.644,14.972,13.705,16.285,13.247
10.789,14.130,17.972,16.177,18.041,15.723,14.720,13.449
10.797,23.871,20.881,24.744,23.916,23.979,24.185,21.535
10.805,32.840,33.907,34.015,32.025,36.075,34.669,32.908
10.812,39.526,38.916,43.315,42.667,43.552,40.884,40.800
10.820,42.928,39.721,41.393,42.117,41.405,41.583,41.007
10.828,33.925,36.781,34.438,37.770,35.615,33.939,35.225
10.836,27.245,29.035,28.655,29.030,30.444,27.702,28.561
10.844,22.389,23.625,23.151,22.009,23.242,20.266,21.327
10.852,19.832,19.744,19.885,19.783,20.656,20.851,20.259
10.859,14.977,17.891,17.694,14.241,16.665,15.480,13.171
10.867,12.802,12.290,12.349,11.516,10.953,9.033,8.935
10.875,4.895,4.158,4.401,5.391,3.706,3.274,5.576
10.883,3.237,2.941,2.768,2.219,2.755,4.478,5.116
10.891,9.484,6.778,7.637,5.839,11.339,6.077,8.292
10.898,21.615,19.271,20.546,18.380,20.714,23.022,20.371
10.906,30.114,30.159,31.244,32.223,30.969,32.481,34.591
10.914,38.433,37.800,37.926,40.365,39.404,38.263,40.862
10.922,38.387,41.390,39.722,39.161,41.924,42.650,38.197
10.930,35.117,36.392,37.377,34.872,34.531,34.802,37.261
10.938,28.666,32.964,31.582,31.360,29.962,30.960,32.297
10.945,30.876,27.450,27.657,27.195,31.129,27.427,28.989
10.953,27.947,30.206,26.661,29.551,27.373,28.827,26.892
10.961,25.765,25.376,24.648,26.063,28.185,25.386,29.481
10.969,22.695,19.215,20.941,20.993,21.893,20.801,24.010
10.977,21.275,21.162,17.197,19.542,20.050,20.496,19.016
10.984,19.313,19.533,18.520,17.601,19.651,20.017,20.537
10.992,27.761,28.326,28.635,30.472,28.283,27.704,28.148
11.000,40.048,41.332,42.074,43.510,41.452,41.393,43.894
11.008,54.677,57.518,58.012,55.965,56.274,56.537,54.727
11.016,64.218,60.155,60.680,62.533,63.280,62.592,63.599
11.023,61.495,62.274,63.634,60.198,60.797,64.127,61.137
11.031,58.784,59.933,60.340,60.348,56.934,59.245,56.587
11.039,56.364,57.093,51.949,52.331,53.630,51.522,53.388
11.047,52.177,51.404,52.714,51.742,50.986,54.624,52.674
11.055,50.078,53.118,48.963,53.958,52.411,53.550,51.716
11.062,47.177,45.703,50.743,48.276,46.450,49.210,47.734
11.070,44.998,45.791,45.962,41.694,44.417,43.420,44.382
11.078,42.399,42.013,42.404,40.962,40.414,42.150,40.695
11.086,41.091,42.598,43.489,43.062,44.136,42.485,40.729
11.094,49.411,49.012,47.979,52.455,49.643,48.003,51.806
11.102,64.716,62.229,61.071,64.998,64.411,62.569,62.203
11.109,71.410,72.931,71.585,71.434,74.487,73.336,71.312
11.117,79.475,78.675,75.846,74.870,78.293,76.957,75.278
11.125,73.987,76.032,75.021,73.849,76.932,76.432,77.002
11.133,66.654,67.561,69.931,66.965,66.787,68.053,68.505
11.141,62.420,64.947,64.472,62.044,63.973,61.129,61.614
11.148,57.950,61.312,58.127,57.729,61.623,58.551,58.592
11.156,54.562,56.168,53.334,57.890,57.817,54.803,53.808
11.164,49.574,50.267,48.334,49.965,51.636,47.586,51.556
11.172,44.979,42.529,45.445,44.373,45.689,42.398,44.101
11.180,36.388,39.012,37.741,36.302,38.202,37.500,36.960
11.188,39.279,37.896,39.944,36.140,40.817,39.527,36.450
11.195,45.461,44.620,43.437,47.297,46.125,46.930,44.539
11.203,58.158,52.636,53.874,58.510,58.250,56.036,57.945
11.211,63.835,64.584,63.464,63.081,63.304,60.005,64.882
11.219,62.440,64.459,64.581,62.607,61.883,64.214,63.625
11.227,58.213,57.092,59.420,58.941,59.503,57.408,60.140
11.234,50.172,49.068,47.777,49.162,51.366,51.751,50.383
11.242,41.901,44.400,42.309,43.974,44.610,41.630,44.424
11.250,40.266,37.072,35.355,37.738,37.677,38.965,40.276
11.258,31.070,35.939,36.048,32.637,32.856,32.435,32.637
11.266,26.634,26.790,29.400,27.264,26.076,25.350,26.086
11.273,17.847,19.294,21.120,16.843,19.757,20.472,16.171
11.281,13.899,13.737,12.568,13.262,12.699,14.415,12.473
11.289,16.702,16.660,13.305,16.325,15.478,14.845,14.480
11.297,23.758,26.799,26.263,25.604,23.241,23.055,24.902
11.305,32.951,35.729,36.688,33.254,35.596,35.214,33.515
11.312,40.551,39.310,43.311,41.398,40.043,42.427,43.165
11.320,39.293,41.801,40.000,41.381,39.071,39.263,40.239
11.328,37.147,32.761,34.466,34.205,37.632,34.661,33.609
11.336,30.079,26.624,27.771,28.180,28.072,27.468,26.279
11.344,22.351,22.065,24.989,22.778,23.230,21.385,23.108
11.352,19.725,18.536,21.835,17.858,19.301,18.658,18.524
11.359,17.476,14.503,14.304,17.159,16.724,17.292,18.150
11.367,12.154,7.948,10.261,12.804,12.156,12.086,9.943
11.375,6.542,4.563,5.798,5.538,5.019,3.094,3.107
11.383,1.333,5.045,1.670,4.717,1.829,2.387,3.829
11.391,7.528,6.749,5.869,7.110,7.790,8.756,9.645
11.398,20.980,20.237,20.769,17.933,19.643,20.244,16.691
11.406,31.058,33.395,32.634,32.789,31.181,34.766,33.348
11.414,40.690,41.107,40.083,42.775,41.213,40.481,37.466
11.422,42.811,41.597,40.104,42.225,41.732,43.350,39.198
11.430,34.206,35.183,36.771,36.862,34.931,35.420,37.054
11.438,31.953,32.693,33.747,32.956,31.208,33.608,29.001
11.445,28.298,27.704,29.818,27.438,29.448,30.523,28.581
11.453,26.759,29.356,31.030,25.999,30.442,30.953,26.610
11.461,27.265,26.431,29.472,26.710,23.318,24.738,28.139
11.469,23.717,21.867,20.394,23.210,23.684,22.152,21.851
11.477,17.647,19.874,17.557,18.745,17.341,18.974,18.929
11.484,21.776,20.271,19.138,22.324,21.424,18.957,21.464
11.492,29.257,29.161,27.922,30.343,27.531,29.408,28.847
11.500,40.412,43.450,40.380,43.835,40.729,40.369,40.308
11.508,54.959,51.983,58.421,54.527,55.754,53.780,58.719
11.516,60.462,63.770,64.587,59.845,63.660,60.331,64.962
11.523,60.469,62.138,62.980,63.143,64.812,62.293,64.912
11.531,60.841,59.732,60.546,59.773,55.773,59.992,59.537
11.539,52.720,53.975,53.283,57.771,57.490,55.587,56.388
11.547,53.614,52.282,51.125,54.084,51.946,54.024,53.768
11.555,49.806,51.767,52.336,54.350,51.746,51.953,50.809
11.562,48.781,49.679,48.566,51.294,47.781,49.190,48.782
11.570,43.283,43.057,43.848,41.659,43.354,41.985,43.750
11.578,38.030,37.894,42.053,39.506,42.569,40.868,40.656
11.586,40.456,43.315,41.555,43.230,42.099,44.304,44.187
11.594,49.015,49.260,48.223,49.700,48.798,52.443,49.942
11.602,63.625,62.468,64.543,65.285,64.425,64.392,61.003
11.609,75.928,71.764,75.190,72.653,74.895,73.830,73.325
11.617,78.228,78.912,76.784,76.861,78.871,75.685,78.388
11.625,72.597,77.315,73.967,76.049,75.825,72.587,75.091
11.633,69.160,67.428,67.246,66.056,68.054,66.643,67.266
11.641,64.653,60.631,62.005,60.467,62.407,60.935,64.057
11.648,57.849,61.083,57.726,59.727,59.253,56.769,55.998
11.656,55.048,54.360,54.962,57.891,53.251,55.905,54.315
11.664,49.293,48.991,47.106,52.135,49.324,51.312,49.579
11.672,43.377,43.972,41.219,44.754,44.010,41.678,40.904
11.680,36.770,35.467,38.296,36.984,38.580,35.026,36.402
11.688,39.829,36.143,36.683,35.842,39.563,36.198,40.293
11.695,44.458,47.398,47.612,48.427,47.548,44.529,47.917
11.703,54.048,57.119,56.130,57.701,54.634,58.199,59.004
11.711,65.764,62.502,63.416,63.671,65.932,63.883,62.524
11.719,66.096,65.499,62.454,63.556,66.958,62.038,64.281
11.727,57.905,58.323,58.239,59.534,58.870,57.248,59.501
11.734,52.245,50.449,52.597,51.656,48.724,48.345,48.638
11.742,44.468,42.292,43.512,41.258,43.544,44.623,44.020
11.750,36.668,39.942,38.476,39.595,40.339,38.367,39.322
11.758,30.597,33.979,34.895,33.064,36.352,32.689,32.372
11.766,25.173,28.708,25.981,26.873,24.096,23.573,24.640
11.773,20.702,19.216,20.725,20.733,17.281,18.346,19.579
11.781,16.778,11.714,15.692,15.098,16.295,14.990,15.132
11.789,17.116,16.005,15.394,16.604,16.123,15.390,15.822
11.797,22.291,22.620,25.518,26.468,26.057,23.541,24.399
11.805,36.488,34.396,35.949,35.628,32.569,36.151,35.129
11.812,42.653,40.725,40.865,38.790,39.171,39.165,39.431
11.820,39.674,39.804,40.290,40.698,39.573,40.649,40.753
11.828,33.820,36.741,35.195,34.038,36.466,36.429,36.626
11.836,25.741,29.139,28.671,28.764,29.766,29.610,30.868
11.844,20.745,22.680,22.588,22.700,21.297,22.958,21.878
11.852,21.900,19.798,20.620,18.209,19.156,20.204,19.482
11.859,17.690,17.542,18.132,16.023,15.363,17.944,13.938
11.867,8.626,9.878,9.395,8.345,10.380,9.779,12.256
11.875,4.459,3.755,5.744,4.543,5.915,3.006,3.601
11.883,2.752,0.353,1.033,1.915,2.313,2.837,0.169
11.891,6.021,6.833,8.698,9.368,9.046,9.195,9.886
11.898,21.719,21.128,21.497,17.816,21.002,19.996,18.420
11.906,33.559,33.630,34.160,33.137,32.980,30.949,33.916
11.914,37.896,38.263,38.999,39.930,40.262,38.512,39.247
11.922,38.452,38.764,41.249,38.258,40.029,38.491,43.341
11.930,36.962,37.417,38.226,38.707,38.285,37.059,35.401
11.938,32.016,33.080,30.927,32.667,32.638,33.820,32.756
11.945,31.496,29.864,27.744,27.578,30.440,28.340,29.845
11.953,26.302,28.422,28.718,27.469,28.438,26.664,31.385
11.961,26.842,27.916,24.981,28.026,27.499,28.629,25.411
11.969,22.513,20.457,21.481,24.861,22.678,24.496,23.024
11.977,16.285,16.158,21.663,17.344,16.857,16.624,21.616
11.984,19.175,21.368,19.212,20.954,19.691,18.640,19.134
11.992,28.413,27.610,30.001,27.650,27.795,30.622,27.301
12.000,41.716,45.178,40.663,41.431,43.413,43.907,42.444
12.008,53.452,56.470,52.276,53.161,53.006,54.711,51.872
12.016,60.543,59.906,64.016,63.469,62.687,60.189,63.194
12.023,61.986,61.211,62.930,62.359,63.833,64.227,63.557
12.031,60.579,60.364,59.067,56.309,58.232,60.869,56.315
12.039,53.714,53.772,54.674,55.420,53.926,54.922,53.564
12.047,50.038,51.015,52.180,52.660,51.612,51.261,54.754
12.055,52.221,53.167,54.033,51.339,50.257,50.911,50.233
12.062,45.974,46.761,49.770,50.189,45.838,49.038,46.228
12.070,45.288,44.355,44.161,44.287,44.926,43.087,43.519
12.078,39.205,39.721,38.792,41.436,40.536,38.720,40.820
12.086,40.278,41.774,39.665,44.242,42.335,44.900,43.181
12.094,50.962,49.508,50.322,51.023,50.159,52.010,50.624
12.102,62.929,63.121,64.599,65.887,62.229,61.483,62.442
12.109,75.373,73.945,73.640,75.626,73.222,74.286,75.337
12.117,77.406,79.500,78.151,75.046,76.245,77.951,77.141
12.125,76.913,73.968,73.343,72.876,75.442,73.394,76.381
12.133,67.874,67.397,68.995,67.478,70.404,68.090,67.439
12.141,63.273,61.641,61.929,61.589,61.955,61.616,61.928
12.148,60.634,61.129,60.189,60.247,59.605,57.258,59.615
12.156,56.863,53.521,54.292,54.994,58.185,56.244,57.129
12.164,51.746,47.931,47.535,47.445,48.504,49.441,48.946
12.172,43.021,41.837,44.148,41.309,42.245,41.076,44.214
12.180,38.593,37.440,38.428,38.377,36.440,40.142,35.801
12.188,38.648,38.397,36.596,35.931,36.308,39.761,38.463
12.195,45.274,43.827,44.217,47.323,44.082,43.009,48.064
12.203,54.006,54.142,55.351,53.574,55.103,56.243,57.539
12.211,62.015,62.399,66.554,66.118,65.864,61.724,63.330
12.219,65.579,64.141,65.650,61.338,66.061,64.915,65.666
12.227,56.575,56.498,56.012,60.852,60.543,61.715,60.527
12.234,48.197,49.891,52.375,51.808,49.137,49.331,48.056
12.242,40.339,41.703,41.865,42.507,42.855,41.918,44.553
12.250,39.700,41.484,39.925,37.262,37.057,37.805,37.316
12.258,31.259,32.120,31.757,34.064,31.118,35.213,33.523
12.266,28.322,29.087,27.485,28.614,24.441,26.689,26.688
12.273,17.914,19.387,19.767,17.527,20.348,19.071,17.353
12.281,15.515,14.808,15.053,11.721,14.784,13.608,14.799
12.289,17.797,14.273,16.503,17.244,16.579,17.244,13.920
12.297,25.293,23.036,22.842,21.804,24.505,21.628,23.417
12.305,34.260,36.404,34.972,34.030,31.524,36.215,34.845
12.312,39.207,40.265,42.334,42.970,41.988,41.095,42.734
12.320,38.448,42.886,39.941,41.689,42.117,42.404,43.302
12.328,33.807,37.809,36.196,34.570,37.474,35.871,34.780
12.336,25.917,29.576,26.933,27.432,26.379,27.242,30.114
12.344,23.967,20.612,25.052,24.253,24.899,20.644,24.122
12.352,19.206,17.852,17.533,19.353,17.717,17.343,19.322
12.359,16.454,14.399,13.635,17.830,15.760,16.374,15.949
12.367,9.060,10.508,10.986,12.220,8.094,10.136,8.792
12.375,6.224,3.429,6.069,6.658,5.405,3.682,5.885
12.383,2.039,3.857,1.711,1.847,5.071,5.858,4.278
12.391,6.873,10.195,6.803,8.506,9.728,9.373,6.146
12.398,21.938,20.160,21.178,19.627,18.940,21.080,18.147
12.406,31.503,34.477,35.155,33.908,34.195,30.487,31.322
12.414,37.007,39.961,37.075,40.641,41.891,38.041,40.350
12.422,41.335,41.021,40.156,40.689,41.894,38.171,41.647
12.430,38.957,34.176,34.581,33.774,35.034,34.805,36.733
12.438,33.218,29.834,30.597,29.775,30.132,30.093,32.093
12.445,31.800,30.691,29.633,28.121,26.979,28.363,27.486
12.453,29.342,31.309,29.449,29.415,25.002,29.897,27.381
12.461,25.989,23.422,27.262,25.645,28.234,27.592,27.021
12.469,20.612,22.397,20.568,24.416,20.331,24.012,19.534
12.477,16.834,21.060,18.732,19.199,17.243,19.776,21.471
12.484,20.862,18.309,18.440,19.056,21.106,21.716,19.932
12.492,27.928,27.455,27.838,27.225,27.673,28.420,29.340
12.500,41.514,40.783,39.424,42.590,39.967,42.696,42.262
12.508,57.872,53.094,56.586,55.625,56.526,52.172,54.863
12.516,62.498,62.036,60.460,63.673,63.641,59.819,62.416
12.523,63.246,65.304,60.860,63.812,64.379,61.157,61.945
12.531,59.300,58.610,56.977,56.517,55.629,57.155,56.960
12.539,53.043,54.354,53.061,55.651,54.881,56.522,54.021
12.547,53.624,54.094,53.138,51.598,53.220,50.906,54.276
12.555,48.161,50.301,51.991,50.242,52.583,54.556,50.431
12.562,50.159,49.938,48.982,47.519,47.556,48.575,49.883
12.570,44.575,41.093,46.619,46.175,45.643,43.884,41.991
12.578,41.334,38.907,39.280,41.070,42.530,41.015,40.121
12.586,41.441,41.687,41.964,40.435,39.897,42.601,41.320
12.594,49.085,49.174,52.727,48.563,50.487,47.490,50.854
12.602,63.863,61.537,63.097,62.458,60.035,65.868,60.393
12.609,74.318,72.060,71.492,71.321,70.919,75.185,74.253
12.617,76.432,75.541,75.836,77.670,77.696,78.464,78.477
12.625,75.996,72.414,76.572,73.131,73.315,73.307,72.751
12.633,67.273,69.822,68.496,70.238,66.067,67.654,66.157
12.641,63.580,61.384,63.633,63.535,63.376,63.937,65.278
12.648,60.851,61.131,58.731,56.201,58.914,59.143,58.169
12.656,55.874,54.680,56.178,57.911,56.340,56.408,55.755
12.664,52.180,48.300,47.187,53.077,49.466,49.775,50.281
12.672,42.955,41.099,40.146,46.097,42.236,43.198,41.387
12.680,36.134,38.727,36.994,36.747,39.647,39.382,37.144
12.688,36.719,39.630,36.133,37.832,40.367,36.163,35.926
12.695,43.879,45.206,44.474,45.523,46.945,45.636,45.919
12.703,55.291,55.623,55.219,58.547,56.496,55.600,56.188
12.711,64.101,65.621,61.124,65.376,65.170,65.396,62.340
12.719,64.868,67.030,64.376,62.873,62.314,65.940,65.102
12.727,59.660,57.812,60.610,58.539,57.798,59.376,60.315
12.734,48.147,51.216,49.629,47.680,48.851,49.298,51.172
12.742,44.310,41.202,46.991,46.112,42.048,44.092,44.367
12.750,36.648,37.643,41.373,39.160,34.645,40.805,39.062
12.758,31.003,35.293,31.112,32.947,32.133,34.983,32.575
12.766,29.084,25.783,28.558,26.986,29.040,27.673,27.273
12.773,19.635,20.813,20.560,19.338,18.137,18.266,18.922
12.781,12.755,16.090,14.819,12.131,15.340,14.134,14.825
12.789,17.591,13.603,14.565,14.953,17.892,18.159,12.894
12.797,25.228,22.525,26.049,24.262,25.289,21.613,22.325
12.805,33.575,36.296,34.537,33.829,33.175,33.805,32.267
12.812,42.235,40.670,40.408,39.989,39.134,39.332,43.989
12.820,38.936,40.267,41.088,42.879,41.641,42.075,42.403
12.828,35.893,38.028,35.693,34.111,36.596,36.316,35.378
12.836,26.199,30.504,26.985,25.930,28.661,26.726,25.826
12.844,22.664,22.521,24.657,24.295,20.890,22.017,24.618
12.852,22.167,21.889,21.268,20.496,17.175,18.756,20.485
12.859,13.547,13.461,16.707,14.479,15.266,17.349,17.279
12.867,11.792,11.384,11.018,8.429,8.866,10.468,8.438
12.875,2.547,7.199,7.146,6.609,4.236,3.890,6.708
12.883,0.969,4.519,1.684,5.385,4.188,4.761,3.170
12.891,10.602,8.917,5.924,7.101,9.896,7.189,7.584
12.898,19.252,18.532,21.840,21.026,20.681,20.147,21.780
12.906,33.554,31.075,34.366,32.419,33.994,31.152,32.120
12.914,40.216,37.070,41.101,38.138,40.936,39.514,41.632
12.922,37.913,41.103,41.922,42.222,38.923,40.677,43.153
12.930,36.374,36.861,36.319,35.537,35.710,34.898,38.036
12.938,33.695,29.123,32.139,33.207,29.541,32.692,32.936
12.945,28.279,27.608,29.573,30.666,28.034,30.620,27.072
12.953,28.199,28.291,28.384,26.638,27.447,25.874,27.166
12.961,27.285,24.026,26.396,28.461,24.781,29.396,28.347
12.969,21.585,19.454,19.594,25.075,22.053,22.074,25.862
12.977,17.627,18.809,20.576,22.024,19.599,17.935,21.756
12.984,19.780,20.054,20.333,20.168,22.469,19.951,21.769
12.992,26.740,29.883,25.184,31.128,31.377,29.733,29.645
13.000,38.693,40.389,41.923,41.573,42.062,40.945,42.915
13.008,55.814,55.763,55.658,54.906,55.429,56.277,57.191
13.016,61.712,63.923,63.220,64.048,63.093,61.939,62.346
13.023,61.828,63.448,63.798,63.024,59.910,64.160,61.585
13.031,58.118,57.090,60.257,57.395,58.384,61.119,58.383
13.039,54.591,53.916,52.770,54.706,55.228,54.738,52.907
13.047,54.188,53.167,55.392,53.224,50.761,53.195,54.375
13.055,50.953,52.746,51.977,52.787,51.780,52.391,51.350
13.062,48.764,48.868,49.347,47.308,49.655,48.850,48.256
13.070,45.544,42.258,42.810,45.401,43.364,45.651,42.930
13.078,38.410,41.193,42.423,40.996,39.788,39.725,39.950
13.086,40.209,41.033,39.844,41.269,41.840,42.177,42.124
13.094,50.560,49.992,52.310,51.828,50.505,49.931,52.112
13.102,62.800,62.907,60.413,62.753,63.149,65.039,63.340
13.109,72.113,71.857,74.331,71.816,70.637,71.324,72.869
13.117,76.043,77.451,78.062,79.562,78.563,79.237,77.091
13.125,75.993,73.275,74.235,75.381,74.079,76.542,76.524
13.133,68.861,69.355,68.868,66.791,69.260,65.974,66.547
13.141,64.412,62.143,61.126,61.932,60.975,63.313,64.408
13.148,56.759,58.700,58.012,58.140,60.632,55.769,59.376
13.156,56.050,57.387,57.626,54.322,53.257,54.539,55.208
13.164,51.062,51.445,48.101,50.391,52.052,50.790,50.215
13.172,43.104,43.625,40.754,42.891,44.055,44.847,40.441
13.180,39.320,38.291,36.686,36.434,37.519,37.442,39.305
13.188,37.319,37.066,40.283,39.910,36.647,36.715,36.685
13.195,43.834,47.206,47.321,46.666,47.513,47.206,44.676
13.203,58.101,54.197,54.346,57.998,56.411,56.096,57.532
13.211,62.487,63.819,62.569,63.188,62.699,65.140,64.465
13.219,63.092,66.825,65.627,62.313,61.776,65.082,62.504
13.227,59.606,60.212,58.724,58.315,60.623,61.440,59.947
13.234,51.206,49.413,51.607,48.924,51.676,52.711,49.924
13.242,41.946,42.871,44.453,43.363,43.030,41.778,44.248
13.250,39.054,38.137,36.481,40.435,39.582,40.173,40.882
13.258,32.471,34.744,33.807,29.861,35.676,32.938,32.231
13.266,25.665,26.705,29.115,28.979,24.906,26.619,28.472
13.273,21.071,19.651,17.105,17.626,18.560,20.152,19.824
13.281,11.958,13.567,14.918,13.537,15.749,15.328,15.868
13.289,14.488,14.234,15.613,17.009,17.490,14.415,14.829
13.297,23.763,22.917,25.934,24.026,23.780,24.254,25.328
13.305,34.667,35.440,34.305,35.432,33.688,35.395,36.675
13.312,41.917,42.532,41.078,43.045,39.746,39.287,39.386
13.320,39.793,42.683,39.534,42.208,42.672,38.471,39.615
13.328,33.486,33.251,34.533,36.846,36.348,36.418,37.400
13.336,29.371,30.203,28.066,29.118,25.312,26.824,26.138
13.344,20.437,22.532,23.856,19.652,20.636,21.647,20.607
13.352,19.124,21.939,20.854,19.037,17.282,19.023,20.328
13.359,17.092,16.559,14.847,15.515,15.542,17.288,16.425
13.367,11.116,8.233,10.102,10.175,10.050,11.560,10.451
13.375,5.969,3.828,5.158,3.292,3.538,6.734,4.362
13.383,1.738,3.734,2.643,5.183,2.433,4.498,2.572
13.391,6.851,6.522,9.301,8.452,6.855,10.398,10.515
13.398,18.871,20.113,21.346,19.827,19.153,20.226,19.220
13.406,34.767,29.951,33.245,33.257,30.850,31.228,31.155
13.414,38.552,40.730,39.011,41.283,39.528,41.718,37.483
13.422,39.058,40.187,42.843,39.314,41.998,38.338,40.517
13.430,38.726,34.788,37.693,35.861,37.307,36.395,34.219
13.438,29.376,31.924,30.977,30.611,32.711,33.514,32.654
13.445,29.546,30.867,31.059,29.238,29.379,27.947,27.175
13.453,29.146,29.433,29.515,26.465,30.492,28.202,28.887
13.461,24.754,27.893,26.880,26.904,27.634,27.480,24.855
13.469,20.067,23.824,23.701,21.067,20.201,22.868,19.677
13.477,18.866,16.917,21.553,17.987,18.197,16.334,17.461
13.484,19.639,21.453,17.962,18.466,21.093,21.487,18.911
13.492,31.428,28.803,29.806,27.124,26.398,27.796,26.125
13.500,40.285,43.563,43.701,39.116,43.839,44.005,43.695
13.508,56.099,56.827,53.128,56.395,54.105,51.304,56.206
13.516,64.226,63.840,61.156,61.674,62.388,62.658,62.824
13.523,64.617,63.845,64.785,59.521,61.709,61.214,61.894
13.531,59.663,56.416,60.075,58.478,58.047,56.809,55.566
13.539,57.165,55.495,56.206,56.698,51.591,56.578,52.364
13.547,51.918,53.501,53.864,55.012,53.243,52.822,51.827
13.555,53.058,48.520,50.761,48.745,49.451,52.522,53.908
13.562,50.479,48.328,51.335,46.030,49.269,48.989,46.385
13.570,45.131,45.693,45.030,44.308,43.925,45.089,44.057
13.578,41.033,41.882,41.436,38.187,41.538,39.949,42.106
13.586,42.592,41.181,40.607,44.351,44.209,43.598,40.892
13.594,51.680,52.365,48.859,52.352,48.881,49.431,50.833
13.602,61.610,61.495,62.759,60.874,61.314,63.327,62.424
13.609,74.850,72.971,71.974,72.961,71.927,71.499,71.820
13.617,79.901,78.222,78.665,76.303,78.143,77.205,77.765
13.625,76.677,75.680,72.442,76.660,76.107,75.712,72.645
13.633,69.377,70.037,67.702,67.196,67.363,70.320,68.036
13.641,65.145,62.982,64.259,60.064,65.134,61.834,62.059
13.648,59.519,57.970,57.083,56.046,57.170,59.518,59.695
13.656,56.718,53.377,54.967,53.418,53.781,55.292,54.906
13.664,50.511,48.019,47.580,49.203,49.369,50.056,51.588
13.672,45.229,41.721,43.888,45.140,44.453,44.380,43.099
13.680,35.580,40.743,40.268,36.708,38.335,36.374,37.136
13.688,36.659,38.595,40.838,39.002,38.805,38.361,35.990
13.695,47.724,43.365,46.248,45.789,43.479,47.906,45.746
13.703,54.247,55.721,57.561,54.858,53.419,55.424,55.235
13.711,63.517,63.416,66.891,64.475,64.240,64.753,64.952
13.719,64.429,65.495,65.262,66.101,65.609,61.777,63.895
13.727,57.564,56.500,60.340,58.665,55.818,58.473,57.803
13.734,47.815,49.071,48.867,52.416,50.077,49.218,52.219
13.742,43.037,44.526,43.715,42.203,44.709,41.156,41.738
13.750,38.503,39.673,39.128,35.700,38.379,41.132,37.102
13.758,33.242,35.694,31.583,34.010,30.270,32.571,34.253
13.766,27.346,24.918,26.595,24.912,25.994,27.047,24.397
13.773,17.653,17.963,19.848,20.154,17.518,17.816,17.306
13.781,13.128,16.360,15.226,16.179,13.615,14.336,11.266
13.789,17.530,15.133,16.977,14.427,17.415,15.400,13.834
13.797,24.560,24.051,22.544,23.479,26.221,23.316,25.188
13.805,33.226,35.955,35.813,35.132,34.801,33.313,33.594
13.812,39.161,40.082,42.530,41.242,42.604,44.393,40.002
13.820,40.270,39.885,38.670,38.705,41.078,42.757,39.157
13.828,33.793,36.740,35.159,36.346,36.541,36.048,36.428
13.836,25.959,28.536,28.591,28.600,26.974,28.553,27.263
13.844,21.997,24.596,22.208,24.727,23.514,23.883,24.382
13.852,18.284,20.569,17.024,19.755,22.158,19.797,18.945
13.859,14.198,18.156,16.666,16.896,17.391,14.756,13.717
13.867,11.184,10.679,8.796,11.232,8.431,9.382,9.569
13.875,7.006,6.813,3.628,2.790,5.562,6.592,2.629
13.883,3.058,4.316,1.499,4.206,2.738,1.088,4.278
13.891,10.127,7.349,8.266,9.056,9.706,7.995,6.144
13.898,16.836,19.078,17.657,19.676,21.055,20.310,19.395
13.906,32.754,32.892,31.975,33.805,32.715,31.914,31.128
13.914,40.871,38.002,38.703,41.063,41.253,38.483,41.141
13.922,41.605,39.301,40.508,39.065,41.600,38.704,39.433
13.930,34.518,37.296,34.911,36.741,38.145,35.194,38.664
13.938,33.138,33.723,33.729,32.757,27.922,33.522,33.214
13.945,29.534,29.552,28.460,29.089,28.813,30.824,26.325
13.953,28.857,31.311,28.696,28.725,25.811,27.513,25.870
13.961,25.417,24.331,27.518,23.611,27.444,25.879,27.954
13.969,20.857,22.907,20.253,22.885,20.760,21.785,21.923
13.977,18.673,19.191,17.807,19.391,18.255,19.731,20.151
13.984,19.686,20.525,21.261,22.618,22.910,18.168,20.461
13.992,25.585,25.592,29.269,27.387,29.669,31.002,29.804
14.000,42.758,42.536,42.445,43.734,40.878,43.309,43.009
14.008,55.673,57.173,52.417,56.749,55.768,53.932,54.694
14.016,63.323,64.533,64.198,61.015,62.107,65.616,62.569
14.023,60.822,62.383,62.262,59.975,62.718,62.592,64.849
14.031,58.369,55.871,55.858,56.540,57.541,57.782,58.851
14.039,52.784,56.619,54.183,52.792,54.108,53.732,55.148
14.047,50.593,52.974,55.695,52.652,51.658,49.918,51.801
14.055,51.805,49.837,54.014,50.012,50.974,48.957,52.347
14.062,51.321,47.053,47.760,47.111,47.072,48.593,46.138
14.070,46.900,43.960,44.369,45.361,42.674,43.835,42.542
14.078,38.637,39.545,38.537,42.647,38.456,39.407,42.313
14.086,40.427,43.150,41.936,41.372,40.804,43.675,42.854
14.094,50.939,49.179,51.476,47.775,49.271,51.152,47.772
14.102,63.950,65.059,63.094,62.633,59.741,65.373,65.499
14.109,72.565,72.134,75.002,73.456,72.441,76.016,71.980
14.117,75.451,75.900,77.709,77.182,79.282,76.578,76.913
14.125,75.327,77.356,72.541,75.715,73.314,73.442,75.542
14.133,69.426,70.524,69.678,65.653,70.085,69.459,69.195
14.141,64.968,63.148,61.779,62.957,62.989,64.228,64.187
14.148,57.814,58.093,55.661,58.334,60.836,58.361,56.790
14.156,57.315,57.820,57.821,55.238,53.889,52.970,57.498
14.164,50.965,48.064,51.667,51.181,47.414,49.271,50.291
14.172,43.008,43.904,41.421,41.696,43.250,45.182,45.810
14.180,36.748,39.487,36.054,39.891,36.122,37.731,39.585
14.188,38.829,35.498,35.972,40.080,38.345,40.246,41.045
14.195,44.672,47.239,46.354,45.886,47.022,44.024,44.434
14.203,56.026,57.091,56.228,58.457,59.356,57.375,54.093
14.211,63.788,63.001,66.301,64.706,62.671,61.183,63.276
14.219,65.176,63.315,62.557,61.269,65.863,64.429,63.623
14.227,61.209,57.199,59.892,56.574,55.448,56.747,58.246
14.234,53.359,46.909,51.432,48.221,48.606,51.187,49.491
14.242,43.288,41.134,45.732,43.403,45.285,42.559,43.435
14.250,40.122,42.301,38.064,37.846,37.644,38.692,39.245
14.258,31.087,34.479,33.234,33.818,32.497,31.473,31.551
14.266,28.401,26.364,24.817,27.862,25.131,25.654,26.830
14.273,20.949,20.024,19.178,16.768,17.839,19.354,17.315
14.281,14.451,14.406,16.759,15.131,12.691,13.119,12.529
14.289,17.564,16.154,17.654,15.187,18.456,15.962,16.545
14.297,25.473,25.303,23.010,22.920,22.523,22.853,21.775
14.305,34.229,36.037,34.487,32.909,35.219,36.374,34.463
14.312,40.288,42.512,38.526,42.697,42.856,41.504,41.149
14.320,42.924,42.631,39.175,41.198,43.294,43.839,41.367
14.328,35.515,32.698,37.193,37.515,37.857,37.256,33.018
14.336,27.515,26.576,29.354,27.536,25.734,29.457,28.824
14.344,24.310,22.428,20.274,21.230,22.033,21.096,21.077
14.352,21.647,18.020,20.056,17.643,20.500,19.943,19.087
14.359,16.145,16.789,16.344,14.586,14.837,16.762,16.706
14.367,11.618,10.594,10.877,8.690,10.611,10.862,10.657
14.375,6.416,7.135,5.237,2.567,4.515,7.245,5.640
14.383,5.943,3.630,3.027,0.763,2.109,2.919,2.745
14.391,9.340,6.937,8.705,7.307,8.609,8.124,9.736
14.398,21.482,19.093,17.071,18.203,18.885,21.378,19.231
14.406,30.249,30.937,30.557,30.039,32.746,29.738,34.927
14.414,38.156,40.133,39.778,42.649,40.585,41.106,40.236
14.422,40.666,41.190,42.874,42.146,39.827,38.560,40.294
14.430,34.541,35.974,36.859,39.307,34.305,35.555,39.292
14.438,31.180,29.891,30.489,34.087,29.241,31.843,32.912
14.445,32.023,28.660,26.633,30.091,27.640,32.834,31.076
14.453,30.051,28.958,30.266,31.166,30.241,27.146,28.192
14.461,29.110,26.468,25.512,26.683,27.894,26.595,25.108
14.469,22.263,22.019,22.884,20.336,22.356,20.027,20.549
14.477,21.188,20.706,19.302,20.312,17.164,20.276,20.279
14.484,19.674,18.714,17.964,19.887,19.892,21.903,19.537
14.492,27.831,26.427,26.236,28.214,29.492,29.025,27.619
14.500,44.726,41.584,40.633,42.079,40.403,42.130,42.065
14.508,56.851,53.083,53.814,53.856,51.981,56.281,52.829
14.516,62.894,63.911,60.748,61.209,61.663,60.943,62.797
14.523,65.284,64.851,62.784,62.450,61.879,63.861,61.325
14.531,57.808,56.978,58.858,61.340,56.650,60.588,58.870
14.539,55.849,56.138,56.676,55.271,51.899,54.632,55.378
14.547,50.261,49.960,52.531,53.566,53.157,51.382,51.714
14.555,50.910,50.628,48.586,51.796,52.038,50.181,52.977
14.562,48.289,47.817,46.418,51.941,47.798,50.741,46.291
14.570,46.362,43.394,42.920,45.056,42.604,42.735,43.569
14.578,41.810,41.654,39.326,38.799,42.181,37.731,39.030
14.586,42.205,41.158,40.851,44.197,43.947,40.263,43.104
14.594,51.991,51.489,51.785,49.793,49.914,50.129,49.491
14.602,63.173,63.209,63.143,63.438,60.596,62.816,59.949
14.609,71.163,74.579,70.779,74.372,75.859,72.180,73.287
14.617,77.109,75.536,76.342,77.464,78.095,77.566,75.932
14.625,76.282,76.691,73.596,75.373,75.868,73.454,73.352
14.633,70.215,67.005,68.405,69.185,67.147,66.042,67.755
14.641,62.528,62.497,61.186,61.218,60.178,64.472,62.431
14.648,60.688,57.176,59.343,58.275,57.535,57.849,58.302
14.656,57.008,56.213,54.816,53.008,54.881,58.419,57.859
14.664,50.717,50.004,51.339,52.357,48.277,52.369,50.152
14.672,41.995,42.777,41.427,40.588,45.095,41.620,44.174
14.680,39.644,35.206,40.431,39.623,39.327,39.489,37.166
14.688,37.922,35.652,39.888,38.171,39.837,37.549,36.568
14.695,45.639,44.049,45.811,46.944,46.693,47.476,46.703
14.703,55.753,55.081,56.525,58.060,55.259,56.575,53.908
14.711,61.336,61.924,62.906,64.869,64.299,61.465,66.640
14.719,62.744,65.056,63.829,63.848,62.877,64.882,64.860
14.727,57.833,56.608,59.686,57.638,57.472,60.091,60.737
14.734,50.296,52.254,48.611,48.225,49.165,49.936,48.958
14.742,43.237,45.234,45.308,41.880,44.760,42.777,43.350
14.750,36.403,39.521,39.092,39.358,37.088,36.600,41.353
14.758,34.427,35.723,34.628,31.340,32.786,30.883,33.191
14.766,24.448,26.513,26.839,25.613,27.894,27.578,27.148
14.773,19.428,17.451,20.262,21.123,17.053,16.890,20.448
14.781,12.617,16.078,15.750,13.094,11.559,13.744,14.606
14.789,16.984,16.353,15.621,17.207,15.876,15.952,14.997
14.797,25.878,23.159,25.524,22.149,23.809,22.852,23.347
14.805,35.218,34.427,36.415,36.337,37.549,36.299,33.210
14.812,43.476,41.339,39.978,38.568,39.754,40.179,43.767
14.820,43.331,39.138,41.435,40.210,43.320,40.647,43.770
14.828,36.114,36.878,37.199,37.322,34.165,35.113,36.165
14.836,29.496,27.849,26.728,30.319,26.026,31.230,30.720
14.844,23.715,20.961,24.685,24.078,25.011,25.079,22.606
14.852,19.191,20.133,17.499,18.965,20.035,19.744,18.821
14.859,16.367,16.879,14.138,13.922,16.549,16.894,17.905
14.867,10.846,12.754,10.133,11.805,11.603,9.129,11.124
14.875,3.028,4.326,4.467,5.325,4.171,4.272,5.239
14.883,1.605,2.285,2.966,5.328,3.645,4.655,4.892
14.891,9.840,7.874,6.366,6.939,8.266,9.315,7.536
14.898,19.939,22.066,20.295,17.676,19.649,20.786,16.625
14.906,33.888,33.760,30.637,32.612,34.066,29.257,30.679
14.914,40.308,42.063,38.941,40.340,39.486,41.492,39.746
14.922,43.108,40.580,41.406,41.931,41.904,42.041,42.179
14.930,33.936,38.194,35.159,34.382,38.425,37.456,33.936
14.938,34.879,29.536,30.160,32.844,30.195,29.179,29.543
14.945,26.921,27.343,30.623,26.930,29.206,29.754,30.611
14.953,27.316,29.939,25.538,27.077,27.942,30.246,26.838
14.961,25.817,24.115,26.427,24.908,23.791,26.226,24.122
14.969,24.269,21.610,23.982,20.184,22.712,24.631,20.479
14.977,17.775,17.592,20.123,19.995,17.121,19.826,19.738
14.984,22.301,18.842,22.092,22.843,19.590,20.931,18.746
14.992,29.223,26.932,29.236,29.071,30.023,27.112,30.768
15.000,40.498,43.923,42.657,41.257,40.826,44.948,41.181
15.008,55.657,55.938,55.722,53.230,53.129,55.425,53.956
15.016,63.411,63.973,60.207,60.733,60.473,62.040,63.194
15.023,60.856,61.421,62.168,64.562,63.721,65.311,64.354
15.031,59.678,57.235,59.331,57.189,56.753,60.111,59.811
15.039,55.144,52.102,51.695,55.374,53.937,52.997,56.952
15.047,51.331,54.231,51.477,51.271,50.108,50.739,50.298
15.055,52.001,52.666,49.962,48.609,49.439,52.331,49.077
15.062,49.577,49.869,49.943,47.076,48.273,47.149,47.841
15.070,45.981,46.273,44.482,44.499,45.911,42.537,46.167
15.078,40.089,41.019,39.590,38.804,40.664,38.590,41.719
15.086,43.582,42.023,42.358,39.880,44.484,42.860,44.578
15.094,51.877,52.341,49.616,49.525,48.781,49.545,51.521
15.102,62.625,62.044,61.858,61.438,63.216,63.521,62.564
15.109,75.572,74.972,75.659,72.164,74.319,72.559,74.660
15.117,80.012,75.069,77.709,78.527,77.171,76.435,79.180
15.125,75.638,73.079,72.679,73.861,75.296,72.537,75.417
15.133,70.903,67.461,66.674,68.738,68.256,70.104,67.371
15.141,60.606,63.034,61.255,60.341,61.100,63.488,60.848
15.148,61.003,60.736,57.162,58.683,59.208,58.916,59.498
15.156,57.246,56.805,56.390,56.287,54.024,54.566,54.383
15.164,50.773,47.608,49.054,52.206,50.765,49.356,49.907
15.172,43.499,40.466,43.723,44.423,41.602,43.033,42.616
15.180,39.212,36.546,38.032,38.591,36.792,37.232,39.127
15.188,36.691,39.853,40.058,40.121,39.233,40.040,36.540
15.195,47.055,44.852,45.164,46.349,43.926,42.860,46.584
15.203,57.194,59.401,56.805,54.790,56.370,54.400,54.739
15.211,62.586,64.058,62.268,62.735,65.057,64.599,64.618
15.219,61.666,61.936,62.276,63.145,61.717,65.670,63.441
15.227,59.676,59.434,59.420,55.434,55.903,58.427,60.102
15.234,48.614,49.054,50.266,51.613,48.832,49.714,50.211
15.242,43.775,45.212,45.469,45.092,44.574,43.677,43.854
15.250,36.053,39.276,36.922,36.460,37.845,37.922,39.736
15.258,33.242,36.183,34.965,34.078,31.106,35.304,33.649
15.266,27.448,29.241,24.914,24.882,27.662,26.103,27.602
15.273,18.874,18.888,22.168,19.193,15.993,18.314,19.809
15.281,11.198,14.425,13.687,14.649,14.025,15.232,12.762
15.289,14.913,13.733,15.731,12.350,13.940,16.197,14.354
15.297,25.065,22.881,26.152,22.960,21.806,23.822,21.608
15.305,33.297,34.020,32.516,33.521,36.964,36.182,34.599
15.312,41.238,41.937,40.619,39.172,43.277,39.634,42.737
15.320,42.338,42.427,42.037,42.136,42.618,43.313,39.285
15.328,36.040,35.960,36.084,33.610,37.402,35.602,36.851
15.336,30.311,26.670,25.890,25.811,29.085,25.878,28.399
15.344,20.752,24.267,22.171,23.216,21.871,22.580,21.695
15.352,18.999,18.902,19.718,18.261,19.451,21.802,19.318
15.359,16.244,16.169,14.421,15.835,13.368,14.149,16.741
15.367,9.643,11.960,9.124,12.594,10.943,11.028,12.197
15.375,7.037,2.700,6.233,2.875,4.890,6.478,4.840
15.383,3.593,1.287,1.438,5.113,5.418,1.305,5.207
15.391,6.107,6.759,8.291,6.033,8.764,6.011,9.071
15.398,20.834,18.517,18.996,21.125,21.445,20.279,19.426
15.406,35.087,30.488,31.690,32.433,31.996,34.888,33.232
15.414,40.005,40.343,37.261,38.717,42.537,41.868,39.362
15.422,40.193,42.924,42.582,38.327,38.847,40.851,42.692
15.430,38.087,35.379,36.301,35.162,36.068,35.298,35.911
15.438,30.095,34.514,33.432,31.363,33.163,30.527,32.777
15.445,27.386,26.620,29.028,31.210,30.349,30.589,28.292
15.453,30.714,27.913,28.674,28.361,28.626,29.830,27.103
15.461,28.663,23.502,26.811,26.480,26.667,25.214,26.101
15.469,25.083,21.559,23.519,19.667,23.477,22.850,23.040
15.477,21.125,21.569,20.176,21.569,18.185,17.402,19.783
15.484,17.272,18.457,22.129,18.096,18.820,18.690,21.853
15.492,29.464,28.233,28.887,26.923,28.838,27.132,28.722
15.500,42.225,42.690,43.572,42.956,44.019,41.187,41.708
15.508,55.910,52.987,56.738,52.984,54.342,55.866,52.344
15.516,61.562,63.992,64.753,60.891,59.630,63.117,64.683
15.523,62.041,60.474,60.109,63.215,61.436,63.975,62.200
15.531,56.925,58.898,58.237,61.557,57.961,57.907,56.101
15.539,53.619,54.075,54.770,54.036,52.176,55.509,52.396
15.547,51.416,54.587,51.610,53.602,54.703,54.521,50.663
15.555,50.637,51.753,49.400,50.858,48.843,48.767,52.489
15.562,47.234,50.807,46.791,48.909,47.399,50.889,47.497
15.570,44.988,44.668,42.372,45.764,44.388,42.059,46.298
15.578,39.483,43.160,43.428,42.173,39.421,39.662,41.779
15.586,41.783,39.849,43.024,44.062,43.183,42.520,44.332
15.594,50.496,48.551,48.726,52.313,50.460,48.078,49.907
15.602,61.723,63.504,62.445,59.616,62.233,63.559,61.379
15.609,72.083,75.863,73.505,71.806,71.101,71.509,74.073
15.617,79.289,80.233,79.120,77.191,78.721,79.939,78.903
15.625,74.294,74.578,72.560,74.113,74.397,77.274,74.318
15.633,69.530,67.228,68.449,68.869,69.614,66.013,66.923
15.641,64.739,63.538,65.462,62.713,60.329,62.435,63.959
15.648,58.154,58.959,57.536,59.649,60.556,61.031,57.797
15.656,54.953,57.016,53.302,56.819,54.015,56.908,56.367
15.664,48.918,49.030,51.711,47.441,49.838,49.917,49.124
15.672,41.978,43.134,44.559,42.935,45.211,43.134,43.575
15.680,40.619,40.625,37.586,37.411,40.637,38.023,38.071
15.688,35.077,40.243,40.496,40.188,39.173,37.178,38.781
15.695,45.363,44.069,45.154,47.159,44.945,45.345,46.597
15.703,55.032,55.241,55.191,57.037,55.854,58.536,54.930
15.711,64.412,64.625,62.131,63.741,61.193,60.959,62.558
15.719,66.856,65.308,62.900,61.021,65.806,66.697,61.265
15.727,57.646,56.470,61.181,61.335,61.084,57.337,60.168
15.734,51.537,48.113,50.512,48.690,47.729,48.644,50.009
15.742,43.477,42.536,44.583,44.269,43.441,44.410,43.279
15.750,36.071,39.158,38.838,38.028,36.766,39.890,39.346
15.758,33.519,34.452,35.320,32.003,35.442,34.571,31.540
15.766,24.365,27.985,28.410,23.928,26.669,24.869,27.562
15.773,19.298,18.932,21.127,20.954,19.392,19.426,19.747
15.781,14.556,15.990,12.476,11.426,12.190,16.456,16.007
15.789,18.713,18.307,16.372,14.696,14.638,16.984,13.758
15.797,24.427,26.333,23.683,25.799,23.570,25.374,21.725
15.805,33.181,34.855,36.675,36.734,34.927,36.091,33.363
15.812,43.464,40.455,40.672,40.242,42.903,42.775,42.374
15.820,41.931,40.308,38.797,40.219,42.643,42.552,42.184
15.828,34.325,37.319,33.329,35.379,37.563,34.950,36.294
15.836,29.638,29.434,26.588,30.119,30.195,27.208,29.481
15.844,23.835,22.629,24.556,25.154,25.096,24.124,21.441
15.852,18.420,16.724,17.508,21.028,20.003,19.293,17.674
15.859,16.786,14.284,18.100,15.725,17.652,18.175,16.059
15.867,11.965,9.711,11.887,11.084,11.378,9.063,9.574
15.875,7.196,2.607,2.594,4.797,5.946,6.747,5.356
15.883,5.721,2.281,4.570,1.771,3.730,3.313,3.889
15.891,9.424,10.383,10.112,6.768,5.712,8.449,7.063
15.898,17.417,20.320,21.234,20.172,17.957,22.097,16.508
15.906,31.003,33.707,31.361,32.814,31.454,33.949,30.198
15.914,39.333,41.564,41.041,37.058,41.022,39.792,39.059
15.922,43.275,41.921,41.703,38.518,38.977,41.450,42.183
15.930,36.739,38.035,36.536,38.785,35.051,34.367,35.067
15.938,33.726,30.404,34.183,31.595,29.736,30.634,30.973
15.945,30.700,26.999,27.163,32.829,28.061,28.564,30.429
15.953,26.493,26.910,29.076,26.638,27.338,27.122,30.341
15.961,25.982,25.931,27.719,27.470,25.403,27.453,26.118
15.969,22.609,24.431,24.318,21.989,23.516,20.816,21.292
15.977,19.138,17.482,20.919,18.989,19.964,20.373,20.027
15.984,19.095,22.649,21.935,21.048,21.554,19.668,17.571
15.992,28.636,29.889,29.393,29.319,25.826,29.595,26.800
16.000,44.251,43.369,39.894,43.034,46.010,42.157,39.612
16.008,55.156,56.604,52.518,56.650,52.006,52.294,58.169
16.016,61.951,64.522,61.672,61.509,63.485,60.452,64.665
16.023,61.021,62.056,62.277,63.823,64.453,64.708,63.111
16.031,56.257,56.972,59.445,58.284,61.476,58.712,56.804
16.039,55.365,54.658,54.830,53.315,55.474,51.724,55.265
16.047,53.098,51.937,54.707,54.422,51.431,54.998,50.170
16.055,54.978,51.809,51.910,48.650,51.073,50.257,49.891
16.062,47.214,47.065,47.002,48.853,47.842,46.793,46.163
16.070,44.818,46.667,46.129,45.361,43.730,45.184,42.228
16.078,41.960,42.383,42.156,41.556,40.940,40.844,38.320
16.086,44.244,43.936,43.306,42.670,40.581,43.612,42.326
16.094,52.435,52.189,50.186,47.831,48.587,49.860,48.709
16.102,62.224,63.142,63.412,63.016,64.560,63.722,61.756
16.109,72.425,74.096,74.087,75.696,71.903,73.674,73.576
16.117,78.359,78.611,75.555,77.773,77.188,76.435,75.784
16.125,76.665,72.787,76.800,76.691,74.136,76.742,76.474
16.133,66.290,67.839,67.038,70.560,70.310,67.132,69.785
16.141,60.165,64.600,61.801,62.966,64.179,59.612,60.842
16.148,56.684,57.856,58.632,61.165,57.395,59.300,60.978
16.156,53.488,55.459,54.168,56.926,56.145,58.313,55.452
16.164,49.676,48.913,47.012,50.188,50.397,49.572,50.422
16.172,42.678,42.982,43.341,43.293,45.283,43.741,42.238
16.180,36.970,37.992,39.141,40.802,40.883,35.921,37.271
16.188,40.782,37.073,37.117,38.290,37.171,38.058,37.271
16.195,44.320,44.591,44.745,46.282,46.582,46.420,46.539
16.203,55.578,57.498,56.877,57.805,54.195,58.285,55.330
16.211,65.445,65.834,64.190,64.559,62.848,65.554,65.319
16.219,64.213,64.509,65.990,63.209,63.437,61.703,64.603
16.227,59.340,56.805,57.126,57.727,58.413,60.389,58.064
16.234,49.581,51.045,51.489,49.196,47.712,49.975,51.955
16.242,42.735,43.444,44.936,46.269,41.591,42.330,41.049
16.250,39.330,37.188,39.214,38.309,36.072,36.233,39.772
16.258,34.205,33.042,33.400,33.791,31.564,31.719,35.745
16.266,26.587,28.978,26.926,25.423,26.733,27.698,24.662
16.273,20.264,20.865,18.739,20.445,20.329,21.589,19.438
16.281,14.864,14.723,13.749,12.369,13.940,15.216,12.089
16.289,15.133,17.443,15.095,14.512,14.779,16.639,16.005
16.297,25.571,22.285,24.176,26.921,23.119,25.951,21.819
16.305,33.453,35.926,32.376,36.285,35.812,33.537,32.456
16.312,38.935,40.197,39.822,42.418,41.199,40.311,42.495
16.320,43.690,41.901,43.148,42.155,40.566,43.355,39.530
16.328,35.558,33.487,35.394,37.107,35.054,32.627,32.994
16.336,29.071,26.635,26.597,30.468,27.652,26.114,29.214
16.344,21.820,24.470,24.229,20.322,23.954,23.177,22.636
16.352,18.087,17.929,21.340,21.533,19.444,19.927,21.113
16.359,16.819,17.230,17.187,16.088,15.907,15.985,15.878
16.367,12.830,12.637,8.912,11.150,9.387,9.936,11.225
16.375,6.718,6.173,6.851,3.115,4.840,3.158,4.709
16.383,3.480,4.488,3.783,4.010,1.718,1.146,3.004
16.391,6.442,8.312,7.524,7.121,7.665,11.168,8.466
16.398,19.245,22.228,18.236,19.187,20.534,16.882,19.592
16.406,30.704,31.598,30.796,34.515,32.373,33.454,30.022
16.414,37.103,40.966,40.196,40.951,38.814,41.455,37.919
16.422,39.850,38.584,39.300,39.157,42.034,40.917,42.331
16.430,37.881,35.933,37.918,36.704,37.329,33.806,36.384
16.438,30.460,31.497,31.717,30.764,32.988,30.706,30.814
16.445,27.760,30.100,30.935,29.781,26.353,28.370,32.406
16.453,30.805,29.446,27.584,31.809,26.261,26.792,29.732
16.461,28.369,26.929,28.128,24.091,23.133,27.199,23.755
16.469,24.330,24.535,21.015,20.820,20.867,21.554,24.796
16.477,17.201,17.330,20.526,21.520,17.766,20.852,18.132
16.484,19.174,22.772,22.874,21.034,20.477,19.678,20.334
16.492,26.471,28.874,30.792,28.312,28.025,28.881,29.481
16.500,43.305,40.373,43.416,43.363,41.936,41.997,40.130
16.508,53.359,55.840,53.854,57.614,53.975,57.161,56.441
16.516,63.917,64.318,60.353,61.958,60.489,63.140,64.719
16.523,64.269,64.008,61.964,59.906,60.383,62.976,60.285
16.531,57.466,56.687,58.214,59.647,57.913,57.868,58.198
16.539,54.000,55.897,55.049,54.840,54.940,51.898,54.372
16.547,52.548,50.558,50.435,54.780,55.091,51.210,53.130
16.555,47.995,52.169,53.123,50.169,51.137,50.954,52.410
16.562,50.708,49.158,47.294,48.970,49.393,49.909,46.770
16.570,43.137,45.194,46.813,45.836,46.658,43.598,44.928
16.578,41.038,41.017,39.112,42.867,39.991,41.538,38.739
16.586,44.202,42.519,40.134,43.826,43.315,41.933,43.603
16.594,49.521,51.825,49.082,50.833,47.670,51.579,49.598
16.602,62.924,65.062,65.718,60.920,64.350,61.941,63.068
16.609,73.734,73.435,74.153,74.764,75.904,72.279,74.604
16.617,78.657,76.803,78.755,75.932,79.584,77.780,78.773
16.625,76.158,74.501,74.377,75.547,74.348,75.970,73.960
16.633,65.587,70.039,67.693,70.082,68.938,66.426,66.340
16.641,59.862,60.363,60.450,62.378,63.875,61.432,60.217
16.648,60.737,57.259,57.987,62.048,59.394,58.529,58.295
16.656,55.683,54.043,53.787,56.086,53.836,53.732,54.227
16.664,51.276,48.770,48.488,52.201,48.724,48.933,48.761
16.672,40.998,42.949,42.707,44.742,41.438,40.772,41.142
16.680,36.925,37.070,39.951,37.235,35.967,39.227,37.721
16.688,36.830,38.978,39.405,40.982,35.360,39.023,38.754
16.695,46.305,45.072,44.366,47.982,45.506,44.165,43.615
16.703,57.677,57.575,58.949,55.211,59.537,56.888,55.162
16.711,66.220,65.797,64.320,61.202,63.074,65.628,62.753
16.719,65.872,65.931,64.027,63.057,66.994,64.735,64.016
16.727,60.883,60.656,58.305,57.189,60.001,59.301,59.397
16.734,49.773,52.060,49.467,47.069,50.278,51.822,48.270
16.742,44.075,42.619,42.753,46.152,43.847,44.904,45.325
16.750,41.826,38.025,39.460,39.297,36.771,36.434,39.353
16.758,32.262,36.160,33.233,33.689,36.297,32.416,33.203
16.766,26.790,26.076,26.116,24.968,26.444,25.140,28.116
16.773,17.781,16.985,20.087,17.917,20.919,21.394,21.182
16.781,12.298,14.961,12.870,15.941,13.089,11.981,11.885
16.789,17.639,14.965,18.332,17.107,17.273,15.068,15.389
16.797,25.011,23.979,25.583,25.924,22.983,21.373,21.499
16.805,34.467,34.115,36.536,36.366,37.159,35.473,36.169
16.812,39.255,41.178,40.575,40.242,41.326,41.133,38.541
16.820,39.531,40.849,42.431,42.461,43.055,41.153,40.855
16.828,36.953,37.409,33.557,35.201,34.314,35.637,36.614
16.836,29.180,25.871,26.183,29.332,30.293,26.461,26.826
16.844,20.843,24.272,23.657,21.888,23.960,24.896,21.166
16.852,21.040,18.645,18.199,17.721,19.841,22.224,19.031
16.859,18.687,13.814,15.186,16.331,14.709,17.343,17.713
16.867,10.810,12.332,9.050,8.306,10.618,8.980,12.547
16.875,2.586,3.196,5.209,5.460,4.776,6.936,5.831
16.883,1.830,0.489,1.817,5.253,3.137,5.480,4.954
16.891,8.982,6.876,9.465,8.844,5.977,7.610,7.321
16.898,21.683,18.896,19.313,19.232,21.702,18.101,20.210
16.906,33.255,33.652,30.791,30.200,31.511,33.517,30.039
16.914,37.540,39.465,37.603,40.042,38.455,41.428,39.053
16.922,38.330,40.575,41.160,40.392,42.116,42.362,40.047
16.930,37.217,35.466,34.714,38.355,37.727,38.698,36.226
16.938,29.849,30.911,31.463,30.275,33.604,33.369,32.484
16.945,30.400,28.609,31.075,28.460,26.169,31.172,28.310
16.953,29.978,29.726,25.780,26.098,30.297,29.230,29.678
16.961,28.155,24.143,25.703,25.787,25.290,25.688,29.111
16.969,22.077,21.686,23.317,20.752,24.560,24.543,22.368
16.977,20.415,16.646,20.998,21.799,19.133,17.474,19.808
16.984,20.419,20.535,21.713,22.692,23.037,19.449,18.280
16.992,29.259,27.076,28.900,30.242,29.802,31.836,29.448
17.000,44.919,41.146,43.043,43.120,41.891,44.686,43.312
17.008,54.338,57.658,57.500,56.114,56.881,56.305,55.941
17.016,60.382,60.393,60.011,61.737,63.177,59.183,60.582
