timestamp,Fp1,Fp2,F3,F4,C3,C4,P3,P4,O1,O2,F7,F8,T3,T4
0.0000,1.91,16.73,28.13,40.59,22.63,17.16,8.58,1.64,-9.03,-11.31,-5.70,-3.09,5.42,8.02
0.0078,18.37,30.86,38.64,35.84,15.42,13.02,-2.80,-2.43,-16.93,-17.12,-9.08,-3.16,9.48,10.22
0.0156,31.37,29.99,29.19,20.42,5.24,-5.35,-8.89,-11.98,-14.53,-9.79,3.37,7.92,14.60,16.69
0.0234,27.94,22.18,16.71,2.28,-4.55,-12.46,-13.00,-11.07,-7.17,0.16,17.01,24.87,25.80,21.19
0.0313,19.86,11.32,-0.57,-6.69,-10.00,-12.91,-8.21,-1.67,5.81,19.12,29.34,31.80,26.12,21.52
0.0391,14.94,11.36,2.05,-12.06,-8.39,-3.61,-1.79,5.65,16.85,29.09,36.78,30.39,22.35,8.57
0.0469,14.02,8.56,-1.21,-6.44,-4.42,-1.41,9.12,13.36,21.69,32.19,30.69,16.67,1.63,-8.35
0.0547,11.90,4.27,-1.54,-8.51,-2.90,-1.51,9.10,15.67,24.26,21.96,18.09,6.56,-5.33,-21.24
0.0625,0.84,-4.28,-12.81,-13.66,-1.19,-0.90,6.25,10.58,25.51,20.29,7.96,-2.66,-19.50,-23.33
0.0703,-13.13,-14.25,-19.48,-16.57,-0.26,8.05,13.26,17.20,21.46,16.77,4.12,-8.91,-22.36,-18.79
0.0781,-20.18,-20.88,-9.52,-4.00,11.26,11.89,27.34,18.75,18.72,10.72,-2.39,-14.14,-22.37,-19.04
0.0859,-11.32,-4.68,3.05,13.75,18.37,22.05,21.16,19.75,14.90,-2.02,-14.92,-18.92,-20.93,-21.59
0.0938,5.86,17.07,23.99,30.53,26.69,24.30,24.11,10.56,0.07,-10.00,-27.47,-31.30,-28.67,-15.07
0.1016,21.91,27.28,27.21,32.88,16.03,18.23,8.66,-0.72,-12.85,-25.08,-28.89,-27.47,-19.27,-2.75
0.1094,22.07,25.91,24.84,21.70,10.08,18.00,-4.66,-11.62,-23.38,-26.71,-20.36,-10.79,-3.32,7.43
0.1172,17.17,17.84,11.31,3.91,5.04,-5.23,-9.08,-6.37,-15.66,-17.60,-11.08,1.08,7.79,20.96
0.1250,10.70,8.48,4.19,-2.80,-1.14,-1.03,-2.10,-3.72,-8.66,-5.18,6.84,11.57,13.63,15.44
0.1328,17.12,11.11,3.24,-0.35,2.14,4.52,0.96,0.90,-1.76,5.64,10.16,14.56,15.08,8.98
0.1406,18.36,13.32,7.16,-1.11,2.33,3.23,-6.74,4.01,-1.17,1.55,6.89,5.68,7.11,-4.30
0.1484,16.99,5.18,0.53,-5.86,-2.12,-3.15,-3.97,-5.11,1.08,0.75,2.22,5.35,-3.22,-11.04
0.1563,-2.01,-7.84,-18.54,-13.73,-6.16,-5.95,-3.66,-5.32,6.27,3.40,6.31,0.36,-3.96,-10.13
0.1641,-16.69,-25.88,-20.18,-15.67,2.21,2.70,4.12,7.05,12.88,8.80,1.66,0.48,-9.99,-16.43
0.1719,-28.79,-23.61,-10.82,-3.71,4.33,10.39,11.38,6.74,14.07,7.36,-5.41,-10.12,-12.74,-23.23
0.1797,-17.40,-7.92,0.98,17.21,18.78,16.23,13.16,5.41,7.09,-3.03,-15.74,-18.14,-27.64,-24.97
0.1875,-6.06,9.27,19.90,29.48,22.77,15.18,8.73,-0.45,-13.51,-19.94,-25.78,-26.30,-29.36,-21.97
0.1953,4.55,22.10,24.60,26.95,14.03,5.92,-9.08,-14.42,-25.27,-33.69,-27.78,-29.22,-17.43,-7.05
0.2031,8.06,17.89,19.19,19.95,3.19,-5.21,-17.02,-21.76,-28.34,-27.13,-21.72,-12.25,-7.03,-3.36
0.2109,11.55,13.45,15.95,12.00,-2.88,-13.64,-20.02,-23.95,-26.19,-19.30,-9.12,-0.50,7.21,18.24
0.2188,17.59,17.88,17.46,3.70,-2.85,-13.01,-19.35,-20.04,-22.02,-12.99,0.37,9.01,15.13,16.42
0.2266,24.31,21.05,13.95,3.81,-5.90,-13.66,-13.89,-17.71,-17.77,-4.07,5.79,10.73,14.35,7.88
0.2344,28.30,24.15,9.75,-6.55,-11.37,-18.37,-17.66,-16.82,-12.24,-0.51,4.54,7.54,2.91,-2.35
0.2422,22.46,6.55,-6.03,-17.36,-23.58,-25.09,-19.90,-16.93,-0.66,0.48,10.40,8.11,3.89,-9.17
0.2500,8.87,-6.44,-28.61,-35.27,-23.46,-26.59,-21.35,-4.58,8.23,17.14,17.77,9.99,1.41,-9.00
0.2578,-14.06,-26.90,-36.59,-33.30,-20.11,-18.22,-8.62,5.32,18.66,20.87,14.05,5.73,-3.63,-16.87
0.2656,-20.27,-29.79,-24.45,-20.67,-14.96,-1.85,2.92,15.02,21.26,18.80,10.57,-6.20,-17.12,-28.79
0.2734,-14.21,-16.47,-11.64,-2.15,-2.65,1.90,7.60,13.24,17.15,8.10,-5.26,-25.43,-41.91,-32.99
0.2813,-9.68,-9.41,-5.15,3.54,-1.30,8.72,6.44,5.31,-0.12,-10.27,-37.65,-31.86,-47.26,-26.51
0.2891,-7.56,-6.54,0.18,1.09,-3.50,2.34,1.09,-8.07,-11.68,-23.69,-31.38,-32.27,-23.68,-11.47
0.2969,-8.60,-8.25,-7.34,1.83,-0.67,-6.26,-7.70,-5.92,-20.49,-23.67,-25.34,-21.75,-13.33,6.69
0.3047,-8.87,-5.93,-0.32,-2.50,-5.32,-0.57,-1.64,-10.23,-18.45,-22.17,-17.30,-11.21,3.38,11.52
0.3125,-3.40,1.86,4.74,6.46,2.71,-1.16,-1.22,-6.70,-17.21,-17.37,-9.10,-3.85,6.38,17.22
0.3203,10.49,15.64,7.42,8.47,-2.84,-1.91,-11.20,-13.07,-19.67,-18.23,-7.48,-0.44,8.31,17.50
0.3281,15.72,15.23,6.06,-5.10,-6.42,-10.59,-16.10,-13.57,-17.54,-11.14,-4.85,9.73,12.01,22.62
0.3359,11.65,-1.71,-14.00,-19.34,-17.11,-15.03,-17.21,-16.14,-10.70,-4.69,6.54,18.78,9.78,21.13
0.3438,-4.59,-17.53,-28.93,-36.22,-24.70,-16.99,-14.33,-9.23,2.04,11.99,16.06,20.73,21.98,16.08
0.3516,-22.79,-35.86,-38.49,-32.92,-13.57,-9.68,-2.33,4.82,11.05,21.01,18.53,23.19,17.92,8.31
0.3594,-29.78,-33.09,-27.90,-21.72,-6.69,0.53,8.63,7.76,18.28,18.89,13.88,9.02,1.91,-3.56
0.3672,-27.59,-21.86,-16.86,-3.49,6.68,10.32,11.78,11.05,17.00,6.51,6.74,-4.42,-20.60,-15.92
0.3750,-25.07,-19.10,-4.88,5.47,2.50,8.19,2.90,1.26,1.85,-5.86,-11.50,-13.02,-17.63,-11.39
0.3828,-20.28,-18.94,-3.60,6.23,6.96,1.20,2.95,-4.21,-6.63,-7.00,-9.30,-8.26,-7.61,1.26
0.3906,-22.43,-13.04,-0.46,3.21,4.56,-0.11,-2.15,-6.11,-8.03,-9.42,-11.45,-2.70,0.38,11.39
0.3984,-19.09,-8.48,10.68,14.56,9.70,7.32,2.77,-3.86,-12.59,-5.86,-5.67,-1.81,8.74,13.20
0.4063,-6.00,14.02,20.43,24.09,10.79,3.62,-1.69,-2.08,-12.10,-6.14,-0.63,4.06,14.35,16.43
0.4141,18.38,25.67,29.32,21.48,21.02,0.27,-8.88,-7.86,-14.94,-8.91,-3.90,9.23,13.37,26.26
0.4219,25.63,16.93,22.46,9.07,-2.79,-10.54,-14.25,-14.71,-16.36,-7.76,9.00,14.82,23.92,18.03
0.4297,23.14,10.64,-0.52,-13.94,-17.14,-21.14,-20.70,-13.07,-3.75,7.43,23.61,27.57,31.77,23.73
0.4375,9.71,-0.55,-15.58,-28.21,-22.97,-19.41,-15.55,0.70,8.40,22.69,32.12,31.69,28.82,23.62
0.4453,-7.47,-8.67,-21.12,-27.33,-15.02,-7.70,1.80,10.64,27.13,35.49,40.60,29.04,21.24,8.81
0.4531,-3.46,-8.28,-13.46,-15.98,-4.32,2.24,11.63,17.56,32.66,32.44,34.53,18.39,7.09,-6.88
0.4609,-5.16,-11.23,-9.32,-5.54,-4.35,1.13,17.08,16.57,33.17,30.93,19.02,1.24,-13.98,-22.50
0.4688,-4.93,-12.87,-14.42,-11.31,-2.31,5.24,16.70,21.23,28.32,14.76,8.73,-6.56,-19.96,-32.70
0.4766,-18.48,-18.15,-20.01,-8.13,3.72,6.61,17.08,16.27,20.90,8.67,-4.10,-13.31,-18.15,-11.04
0.4844,-26.09,-20.29,-13.82,0.65,5.70,14.37,19.78,15.68,16.82,3.17,-0.78,-12.58,-8.92,-8.97
0.4922,-19.31,-11.93,3.27,14.24,14.34,17.19,23.37,30.99,10.80,-3.32,-20.76,-11.32,-7.72,1.90
0.5000,2.64,10.18,17.86,29.02,22.26,19.81,22.63,10.57,-0.14,-6.38,-16.72,-16.25,-7.14,-0.76
0.5078,16.99,23.03,30.27,27.26,18.66,12.92,13.78,6.58,-10.50,-12.82,-12.29,-10.10,3.01,7.94
0.5156,24.53,27.84,20.09,14.32,7.95,1.60,1.25,-5.07,-19.92,-15.41,-8.56,1.68,8.40,18.69
0.5234,28.98,17.21,5.89,-4.28,-0.04,-3.61,-5.05,-9.06,-13.59,-2.00,1.51,12.30,19.87,25.87
0.5313,9.83,4.81,-4.80,-9.52,-6.48,-1.35,-0.07,-2.04,-1.67,10.51,17.92,21.52,29.97,29.64
0.5391,0.94,1.88,-5.69,-5.55,3.24,2.72,4.68,8.35,10.22,15.73,21.53,22.29,24.99,17.51
0.5469,8.71,-2.76,-0.31,1.73,7.56,6.43,14.20,16.26,19.11,18.81,17.98,15.62,8.24,-2.34
0.5547,3.07,-4.00,-1.26,-0.58,5.34,9.12,15.32,10.81,17.09,3.24,9.87,1.64,-5.64,-12.85
0.5625,-7.26,-12.97,-5.77,-3.59,3.43,9.80,6.58,8.04,16.20,13.21,2.24,2.07,-6.97,-15.59
0.5703,-17.65,-18.72,-12.04,-6.17,9.91,12.93,9.87,6.70,13.66,10.08,2.71,-2.36,-9.41,-12.14
0.5781,-22.21,-15.36,-4.51,8.12,14.99,15.72,17.82,10.35,11.18,5.72,-0.20,-7.84,-13.38,-14.99
0.5859,-18.47,-2.80,10.87,23.70,24.27,25.04,22.07,14.55,8.86,-3.94,-11.68,-14.75,-13.13,-14.82
0.5938,-0.23,22.65,30.58,38.22,28.47,18.00,14.95,3.48,-8.46,-19.22,-22.67,-20.77,-14.24,-9.74
0.6016,22.19,28.91,35.75,37.98,24.67,7.52,0.31,-8.58,-20.13,-23.43,-20.55,-18.19,-11.34,0.76
0.6094,23.97,29.93,36.05,25.74,7.94,-1.01,-14.52,-15.47,-29.81,-25.65,-13.57,-2.64,11.37,7.24
0.6172,26.58,22.48,24.69,10.49,2.47,-10.15,-18.46,-15.57,-16.99,-13.54,-0.13,13.41,19.86,21.12
0.6250,20.39,19.11,10.71,2.98,-0.89,-13.98,-11.71,-12.20,-9.88,-0.74,9.45,16.14,17.82,16.64
0.6328,26.30,22.67,10.19,-0.52,-0.22,-4.30,-10.09,-1.79,5.06,15.32,20.85,19.97,10.20,6.28
0.6406,27.04,21.66,10.81,-2.61,-5.68,-9.58,-4.90,-1.87,8.85,18.17,12.42,14.24,0.50,-8.80
0.6484,24.74,14.64,2.74,-12.11,-11.64,-14.96,-3.41,2.79,6.96,18.07,9.16,6.53,-7.01,-20.68
0.6563,5.01,-3.27,-16.01,-23.45,-12.94,-13.51,-6.77,7.86,18.62,18.22,5.90,-3.11,-13.99,-23.58
0.6641,-6.24,-22.95,-23.97,-24.88,-10.97,-1.50,5.77,13.61,17.72,20.29,5.02,-8.82,-14.41,-27.68
0.6719,-18.41,-22.49,-22.48,-7.80,-2.82,2.91,14.69,17.98,23.77,9.84,-4.41,-12.18,-28.29,-30.17
0.6797,-11.89,-9.36,-0.95,8.25,9.71,14.89,13.82,18.75,11.15,-4.72,-18.54,-25.14,-36.58,-31.65
0.6875,-2.82,7.76,9.38,17.64,14.90,12.78,11.28,7.43,-7.05,-14.59,-30.57,-33.78,-37.20,-29.20
0.6953,8.83,15.97,20.36,15.37,9.50,4.35,3.19,-6.28,-19.05,-28.14,-42.07,-37.54,-26.23,-14.30
0.7031,6.62,10.48,12.19,7.19,4.74,-4.47,-3.36,-12.07,-23.51,-31.88,-27.42,-28.06,-15.19,1.95
0.7109,18.92,10.32,4.52,4.81,-0.05,-7.65,-5.63,-11.69,-27.77,-25.19,-21.67,-7.68,3.65,10.98
0.7188,6.71,9.16,4.29,4.35,-4.07,-7.21,-7.51,-11.28,-20.72,-18.73,-12.98,0.42,12.68,19.46
0.7266,13.88,17.31,6.10,2.54,0.53,-3.15,-11.27,-11.62,-13.24,-8.71,-7.38,4.85,8.16,8.15
0.7344,21.34,13.74,6.93,0.60,-9.66,-11.15,-7.75,-15.81,-9.96,-11.31,-1.85,0.01,9.55,2.63
0.7422,10.77,3.93,-6.75,-14.47,-10.96,-13.57,-17.58,-15.75,-6.42,-1.40,2.02,2.10,9.43,3.53
0.7500,-6.58,-21.27,-22.86,-28.06,-16.85,-16.26,-15.38,-12.08,1.00,5.75,8.15,4.38,8.48,-3.17
0.7578,-26.38,-28.98,-34.62,-27.06,-10.83,-10.91,-0.12,2.62,6.03,13.03,12.96,6.29,-1.79,-3.98
0.7656,-28.23,-28.14,-24.33,-14.25,-4.01,1.00,3.18,9.73,11.52,12.22,2.01,-5.42,-8.02,-18.33
0.7734,-27.79,-17.77,-11.91,1.96,6.65,10.74,11.61,8.21,17.16,-0.56,-13.43,-18.68,-18.78,-22.12
0.7813,-16.14,-5.87,2.87,15.87,11.80,5.93,4.83,-2.36,-8.59,-14.43,-21.48,-28.45,-27.45,-19.39
0.7891,-6.86,0.97,5.21,9.67,4.09,0.80,-10.08,-14.45,-22.69,-22.54,-24.81,-20.91,-13.81,-4.18
0.7969,-13.06,0.75,3.18,5.12,3.93,-8.82,-15.17,-17.68,-19.78,-22.90,-23.70,-9.20,0.74,11.73
0.8047,-4.47,5.03,4.63,4.81,1.86,-6.53,-13.40,-15.08,-27.81,-15.86,-11.04,-3.79,12.84,17.57
0.8125,4.76,12.81,12.10,21.23,1.54,-8.27,-12.53,-16.35,-20.30,-13.47,-4.71,6.40,18.79,17.11
0.8203,19.91,21.76,18.02,7.54,-3.27,-15.29,-15.50,-14.83,-16.00,-12.22,3.74,7.06,16.68,6.92
0.8281,26.46,21.73,9.22,-4.57,-10.26,-19.14,-24.78,-19.73,-12.94,-3.31,4.00,11.62,12.99,16.09
0.8359,20.19,4.58,-5.05,-25.35,-11.76,-26.30,-22.99,-16.74,-5.84,7.16,18.21,16.99,22.57,12.18
0.8438,1.89,-14.08,-25.83,-38.08,-29.87,-31.14,-19.38,-4.38,10.44,23.64,25.96,24.18,22.62,13.08
0.8516,-16.36,-29.21,-34.35,-33.51,-26.35,-19.93,-7.77,6.15,25.43,31.32,32.91,18.62,9.50,1.70
0.8594,-18.76,-27.48,-31.70,-25.35,-15.29,-4.62,6.09,14.08,31.85,30.09,24.54,9.75,-7.71,-11.21
0.8672,-17.16,-16.41,-15.67,-12.68,-7.91,6.10,7.58,19.04,23.91,16.64,9.08,-4.88,-20.58,-24.04
0.8750,-12.21,-14.23,-14.86,-9.22,-0.06,5.12,7.57,14.24,11.06,0.70,-6.96,-17.59,-21.55,-23.55
0.8828,-22.02,-16.63,-9.86,-8.05,-0.59,1.79,4.89,8.61,6.31,-4.51,-14.03,-17.11,-22.20,-8.65
0.8906,-20.98,-16.98,-9.47,-6.12,-1.23,3.62,2.09,2.05,1.20,-7.21,-16.89,-17.97,-4.76,2.49
0.8984,-20.14,-12.66,-6.23,6.88,3.84,8.38,9.38,5.70,-3.93,-11.80,-13.27,-8.72,0.29,14.07
0.9063,-6.11,3.75,11.45,13.84,12.13,11.89,8.53,4.88,-7.29,-12.48,-11.45,-8.00,7.46,20.43
0.9141,14.97,15.68,19.50,20.05,10.15,8.81,-1.92,-6.46,-14.31,-17.32,-9.46,3.36,10.17,23.07
0.9219,23.26,20.97,13.19,4.12,-5.18,-5.07,-8.85,-6.50,-12.79,-13.42,-0.24,8.17,21.09,26.24
0.9297,11.04,1.59,-1.97,-10.35,-8.95,-7.88,-7.41,-15.80,-9.79,-3.82,12.04,19.37,26.78,40.64
0.9375,-4.15,-11.43,-20.19,-21.24,-14.96,-6.61,-2.33,1.89,5.30,16.95,27.08,26.77,34.43,30.01
0.9453,-11.56,-19.82,-25.60,-22.05,-9.34,0.37,6.58,9.90,22.24,26.88,26.26,26.11,27.20,15.98
0.9531,-11.62,-17.32,-19.23,-12.75,-0.12,4.95,12.51,18.70,25.40,23.27,28.07,19.24,12.17,3.77
0.9609,-13.82,-15.87,-11.61,-4.75,10.17,15.69,11.23,17.65,25.56,17.96,8.72,9.00,0.44,-12.08
0.9688,-20.10,-17.41,-10.94,2.61,10.14,10.64,8.38,6.73,12.45,8.56,6.69,-2.11,-11.57,-12.49
0.9766,-23.84,-23.37,-7.54,-1.12,6.96,8.93,9.93,6.87,9.67,0.22,2.37,-4.26,-5.93,-7.47
0.9844,-32.84,-16.04,-3.37,10.99,14.00,14.54,12.54,11.58,3.59,1.40,-5.19,-1.80,-2.66,-0.42
0.9922,-17.42,-5.02,15.75,24.68,22.38,20.38,16.71,9.82,0.87,0.71,-7.78,-3.69,0.68,0.48
1.0000,0.66,17.75,26.52,38.40,21.30,19.28,7.27,7.84,-9.44,-12.94,-7.81,-6.79,5.31,8.39
1.0078,20.96,33.55,41.11,39.11,15.00,6.95,-3.21,-2.38,-15.67,-10.66,-11.18,-2.17,5.27,10.31
1.0156,27.53,37.68,28.31,20.67,8.31,-6.36,-12.12,-14.33,-15.18,-9.17,1.66,12.91,13.28,19.82
1.0234,28.23,21.87,17.62,4.66,-7.22,-10.15,-15.13,-13.89,-8.39,4.24,14.00,21.50,28.27,28.20
1.0313,14.43,11.39,1.73,-9.19,-7.51,-9.11,-7.45,-4.32,3.01,17.25,27.01,35.30,31.26,23.02
1.0391,13.49,8.22,3.28,-4.33,-2.51,-8.63,-2.33,7.36,15.78,28.29,35.41,26.62,20.15,2.87
1.0469,13.35,6.25,-2.99,-8.69,-1.27,0.37,8.60,15.44,22.87,26.27,25.15,16.11,2.53,-7.61
1.0547,12.89,7.52,0.90,-6.75,-4.94,3.02,8.14,15.08,29.37,25.95,17.19,2.07,-6.75,-20.15
1.0625,0.60,-6.40,-9.63,-10.38,-0.93,2.03,8.18,12.29,20.80,29.09,9.25,-0.15,-14.07,-22.10
1.0703,-9.53,-15.98,-18.81,-15.86,-0.82,5.79,11.81,17.07,20.73,15.54,2.40,-8.20,-19.22,-18.93
1.0781,-19.38,-14.66,-15.33,0.00,7.21,11.97,20.51,20.82,23.06,13.71,-2.10,-16.16,-17.55,-20.52
1.0859,-10.90,-1.55,5.03,16.42,15.04,26.15,25.94,19.03,15.58,-2.11,-11.38,-23.89,-22.45,-21.91
1.0938,4.13,11.91,21.73,28.59,25.58,26.06,22.67,13.41,1.93,-14.73,-22.20,-27.87,-27.81,-12.23
1.1016,21.88,21.76,28.03,31.31,21.32,18.93,9.70,-0.43,-17.75,-24.18,-25.60,-27.52,-19.77,-4.78
1.1094,23.92,24.61,26.04,19.52,12.86,8.23,-1.98,-9.53,-25.12,-24.06,-23.23,-12.88,-3.05,6.17
1.1172,21.20,16.94,7.89,5.75,-1.07,-4.70,-6.41,-6.49,-20.55,-19.89,-6.29,3.04,15.29,18.88
1.1250,17.79,9.33,3.99,-3.00,-0.92,-1.65,-4.46,-0.62,-9.09,-5.75,4.04,11.78,21.41,21.53
1.1328,19.93,8.16,2.73,-1.95,0.19,2.96,-0.63,0.66,-4.49,7.97,10.95,15.14,11.18,11.72
1.1406,18.60,11.54,3.33,4.25,5.42,-0.16,4.56,-0.26,-0.57,2.14,8.66,6.34,1.00,0.42
1.1484,16.07,2.77,-1.94,-7.34,-2.97,-0.09,-2.84,-1.77,0.43,7.86,1.72,5.07,-2.79,-8.87
1.1563,-1.90,-9.03,-19.67,-14.55,-4.73,-5.03,-2.30,-0.51,6.67,5.56,20.82,-0.10,-7.11,-15.22
1.1641,-15.86,-26.14,-25.90,-14.82,1.31,-0.71,2.88,3.58,22.55,4.14,-0.58,0.50,-8.49,-18.85
1.1719,-27.18,-25.01,-15.94,-0.39,9.32,12.16,8.92,5.87,13.98,7.73,-3.15,-6.68,-13.62,-17.96
1.1797,-18.32,-6.44,0.90,13.55,14.17,19.31,15.11,10.50,-0.74,-8.79,-18.86,-18.52,-24.08,-27.47
1.1875,-0.15,10.89,23.81,28.31,19.98,13.84,5.09,-0.77,-12.23,-24.35,-29.28,-26.09,-23.46,-18.63
1.1953,11.89,19.39,27.37,30.03,14.23,6.97,-2.83,-15.19,-27.93,-32.54,-32.12,-25.30,-17.76,-9.43
1.2031,13.52,15.62,23.81,16.99,7.58,-5.67,-19.66,-18.64,-33.83,-33.92,-27.62,-15.96,-7.90,7.73
1.2109,7.07,18.37,19.52,8.71,0.91,-15.36,-18.32,-21.00,-30.07,-20.62,-13.35,3.22,9.54,14.86
1.2188,17.70,19.09,12.88,7.96,-2.83,-9.08,-16.58,-18.46,-22.58,-12.64,-2.39,6.17,15.89,15.46
1.2266,22.75,20.36,18.71,8.98,-6.30,-15.07,-15.59,-12.12,-16.41,-5.49,6.78,12.74,15.06,10.52
1.2344,30.38,25.45,7.83,-2.45,-16.57,-17.18,-20.50,-12.90,-8.32,2.55,7.84,10.32,4.33,0.92
1.2422,23.37,14.29,-2.35,-21.09,-25.55,-24.27,-19.51,-18.35,-4.70,7.92,7.83,8.38,3.45,-4.80
1.2500,8.44,-8.50,-26.71,-32.86,-28.76,-24.49,-20.31,-7.28,7.89,13.78,16.61,9.01,1.32,-7.08
1.2578,-10.41,-24.02,-36.62,-38.47,-19.47,-16.68,-7.29,-0.52,17.39,21.76,13.80,9.00,-7.99,-12.50
1.2656,-22.85,-24.25,-28.91,-21.83,-10.82,-4.52,2.34,12.34,19.47,15.55,7.01,-8.99,-16.12,-25.80
1.2734,-15.63,-19.72,-15.55,-3.39,-5.21,0.94,9.13,12.76,17.45,5.29,-8.90,-24.42,-29.95,-33.08
1.2813,-11.97,-7.21,-5.54,2.59,1.82,8.02,9.97,0.86,0.06,-12.97,-22.45,-34.74,-32.63,-28.25
1.2891,-8.29,-4.45,-1.84,2.46,0.32,3.76,-2.22,-2.13,-11.48,-21.48,-30.54,-30.93,-26.30,-9.46
1.2969,-9.81,-4.07,-1.37,-2.00,-4.80,-6.47,-7.19,-8.89,-15.57,-22.41,-22.79,-24.41,-11.03,5.77
1.3047,-12.11,-5.69,-3.45,3.38,-7.41,-6.18,-3.93,-9.39,-20.98,-23.00,-17.17,-7.34,2.33,13.91
1.3125,3.31,3.45,3.03,6.82,-1.41,0.62,-1.83,-9.46,-21.79,-14.80,-12.57,-0.17,12.64,21.47
1.3203,15.13,15.07,14.62,4.70,-4.36,-2.73,-9.05,-14.13,-17.63,-16.87,-4.95,0.48,12.91,17.02
1.3281,14.27,5.42,1.99,-6.04,-11.69,-7.97,-13.68,-15.97,-20.56,-12.46,-0.38,5.50,14.56,18.92
1.3359,10.87,-14.19,-15.93,-22.10,-15.28,-21.42,-16.92,-19.41,-14.42,-0.11,10.09,17.23,16.64,16.82
1.3438,-11.51,-22.71,-30.43,-36.91,-20.29,-21.30,-5.37,-11.58,3.86,12.73,14.88,18.73,25.30,14.49
1.3516,-24.97,-35.94,-34.29,-34.52,-13.19,-10.27,-2.10,4.37,14.15,17.98,21.60,17.37,19.07,12.59
1.3594,-27.91,-32.37,-23.59,-17.73,-7.28,0.02,11.44,7.72,16.43,18.19,19.58,7.38,-0.47,-1.09
1.3672,-22.37,-22.03,-16.29,-5.15,4.39,11.17,13.01,5.65,16.44,5.83,5.66,-2.69,-6.31,-13.62
1.3750,-23.99,-15.88,-5.97,0.80,3.72,9.62,6.47,2.74,6.74,-3.99,-6.17,-8.46,-12.57,-15.99
1.3828,-24.87,-18.33,-6.64,-0.04,2.51,6.12,3.41,-4.98,-4.30,-9.45,-14.52,-8.64,-10.46,-1.90
1.3906,-29.17,-14.37,-4.97,2.45,3.27,5.14,-6.62,-4.31,-10.12,-8.97,-16.49,-7.25,0.27,6.54
1.3984,-23.71,-7.49,10.51,15.77,9.35,5.11,-3.88,-5.67,-9.35,-8.47,-3.04,3.26,11.61,13.43
1.4063,-6.20,10.19,21.52,26.37,8.38,0.70,-2.12,-1.74,-15.52,-12.70,-3.90,7.69,11.62,15.73
1.4141,19.66,28.90,29.12,26.27,9.00,-0.46,-10.23,-9.30,-14.65,-11.37,2.39,6.30,16.39,17.83
1.4219,24.11,30.65,20.63,12.07,-6.19,-16.74,-20.00,-19.44,-16.11,10.24,10.46,21.15,19.25,26.29
1.4297,21.18,12.75,-1.08,-13.07,-19.74,-19.53,-18.88,-9.68,-8.93,4.48,18.34,31.48,30.91,28.34
1.4375,2.30,-0.42,-18.24,-21.80,-18.20,-18.41,-10.26,-0.88,11.44,20.90,35.10,36.51,29.34,21.37
1.4453,-7.00,-11.19,-19.44,-28.27,-18.77,-10.01,-2.19,13.90,23.40,38.79,37.08,34.99,23.15,5.80
1.4531,-1.36,-14.47,-13.01,-16.18,-6.04,3.26,11.72,20.57,33.91,35.96,29.33,18.60,4.91,-10.72
1.4609,-5.32,-12.51,-10.26,-11.30,-3.46,3.31,15.33,20.50,28.85,31.19,20.36,4.67,-6.52,-21.94
1.4688,-8.47,-11.81,-10.83,-12.35,-4.25,4.61,14.51,17.57,27.99,16.27,2.45,-7.50,-19.98,-20.52
1.4766,-18.26,-19.18,-19.43,-8.79,2.00,6.07,16.45,15.20,20.21,12.64,-1.25,-14.62,-14.11,-14.68
1.4844,-22.37,-17.44,-8.49,-13.67,8.89,12.68,18.27,21.28,16.01,3.75,-3.83,-7.95,-9.49,-4.59
1.4922,-17.12,-7.01,1.09,11.68,12.20,20.14,22.00,22.28,13.34,2.55,-6.51,-13.89,-9.99,1.87
1.5000,1.07,7.98,19.04,28.99,23.49,23.87,19.44,17.11,-0.63,-6.84,-15.45,-10.10,-5.47,3.64
1.5078,16.13,26.54,25.88,30.49,16.28,13.84,7.33,5.85,-11.00,-15.13,-13.11,-7.68,-1.02,12.33
1.5156,23.48,23.07,20.06,18.49,5.70,3.41,-1.07,-7.05,-13.29,-16.93,-8.38,-2.89,13.52,18.68
1.5234,18.89,13.44,4.38,1.45,1.64,-4.35,-2.80,-4.68,-8.88,-5.78,2.02,11.08,23.06,12.27
1.5313,6.37,0.46,-5.58,-12.21,-2.33,-0.90,-1.90,-0.06,2.61,9.14,18.78,23.92,31.85,25.36
1.5391,6.67,1.70,-8.91,-7.70,4.04,7.82,8.26,6.70,11.28,23.17,26.69,23.66,23.14,17.39
1.5469,3.54,3.65,1.33,-2.24,2.87,5.87,11.31,10.03,20.94,17.37,23.51,17.83,12.11,-1.47
1.5547,0.36,1.94,-0.04,-3.59,6.04,12.36,10.05,8.06,15.03,17.22,12.44,2.30,-6.27,-7.84
1.5625,-2.16,-2.47,-6.65,-3.99,4.45,8.31,6.37,9.37,12.25,10.02,7.61,1.25,-6.24,-12.04
1.5703,-21.48,-19.89,-16.67,-4.99,9.95,12.32,14.65,8.14,15.51,11.98,-1.90,-3.07,-10.94,-16.45
1.5781,-28.65,-15.03,-8.01,7.71,12.50,18.76,13.25,11.45,13.36,8.55,-1.25,-10.10,-13.60,-13.59
1.5859,-13.09,0.03,13.93,23.99,22.46,26.04,17.77,14.58,5.98,-6.25,-8.24,-12.97,-11.66,-25.04
1.5938,4.68,16.23,35.22,41.38,26.27,24.87,13.14,7.15,-11.01,-13.19,-16.06,-17.47,-18.99,-9.79
1.6016,20.70,34.45,37.45,36.48,18.79,14.53,-3.63,-7.41,-17.42,-26.21,-24.32,-14.01,-9.48,-2.73
1.6094,27.42,33.17,30.47,28.99,5.91,1.34,-9.46,-15.93,-27.88,-25.68,-13.29,-8.72,-0.06,11.07
1.6172,23.73,24.52,21.23,10.93,3.88,-10.35,-15.49,-13.91,-23.25,-12.81,1.89,11.87,14.23,19.12
1.6250,17.77,24.35,15.01,-0.61,-1.16,-7.07,-15.51,-12.13,-9.62,0.96,15.54,18.35,18.23,14.75
1.6328,21.65,18.30,12.56,5.93,-3.76,-10.86,-10.07,-5.08,5.10,15.11,17.43,18.94,10.97,1.16
1.6406,28.41,23.27,12.01,-0.15,-3.38,-10.41,-8.35,2.60,8.74,13.87,13.12,8.43,-1.20,-6.70
1.6484,27.16,15.41,-1.21,-15.39,-13.51,-7.33,-6.03,-3.18,6.77,14.68,15.94,0.43,-6.58,-21.82
1.6563,5.40,-3.00,-13.77,-25.92,-16.08,-11.72,-6.17,2.63,12.74,11.67,9.98,-3.98,-13.05,-25.02
1.6641,-11.27,-18.86,-26.14,-21.62,-9.22,-1.13,6.95,9.15,17.26,19.25,4.79,-9.60,-16.53,-27.11
1.6719,-16.89,-21.14,-16.10,-8.70,-4.56,2.63,16.22,14.95,18.31,14.65,-3.65,-14.98,-26.69,-26.57
1.6797,-16.23,-8.63,-0.44,7.28,6.25,17.99,17.23,16.54,15.51,-3.86,-16.46,-24.30,-45.09,-34.83
1.6875,-2.27,4.13,18.54,16.76,9.65,16.27,10.56,3.37,-0.01,-19.49,-33.23,-33.34,-37.63,-27.70
1.6953,8.48,9.83,17.34,15.41,11.01,4.43,5.29,-3.04,-22.03,-31.44,-35.79,-32.61,-26.52,-13.01
1.7031,8.62,12.21,12.38,5.92,-0.64,-3.97,-7.56,-11.21,-24.85,-33.34,-33.91,-24.25,-14.25,-0.56
1.7109,3.74,3.96,8.47,1.28,-3.50,-8.47,-6.58,-14.81,-23.85,-27.74,-21.68,-8.66,0.45,17.72
1.7188,8.42,4.95,10.11,3.58,-5.86,-3.76,-10.33,-11.52,-20.31,-15.40,-6.80,3.66,12.13,18.98
1.7266,20.29,14.61,11.37,6.25,0.79,-5.10,-4.94,-6.00,-12.23,-14.59,-0.64,0.36,8.04,12.34
1.7344,19.35,12.50,1.84,-4.57,-4.59,-5.19,-9.42,-13.60,-11.86,-6.83,1.38,1.02,8.78,6.45
1.7422,16.81,4.62,-8.10,-15.77,-14.69,-16.86,-16.89,-17.47,-6.07,-6.03,1.11,5.34,5.13,6.91
1.7500,-7.26,-16.35,-25.34,-32.26,-14.40,-18.52,-10.68,-13.44,0.11,2.88,10.07,5.70,2.27,3.34
1.7578,-21.16,-28.99,-32.87,-32.87,-15.01,-5.44,-3.64,2.82,9.44,11.80,5.50,4.50,-1.42,-9.66
1.7656,-31.32,-34.27,-26.02,-11.17,0.90,-0.71,8.03,5.12,12.38,6.19,-0.86,-6.95,-12.10,-18.26
1.7734,-25.49,-16.22,-6.60,0.68,6.96,6.34,5.29,6.08,6.77,-1.38,-13.45,-13.14,-22.64,-20.49
1.7813,-14.07,-4.22,4.92,12.29,8.56,9.79,1.09,-6.05,-6.63,-19.39,-23.68,-28.44,-22.46,-18.83
1.7891,-13.42,-5.55,3.58,16.16,4.02,1.27,-6.42,-15.31,-22.89,-29.87,-29.56,-24.41,-16.37,-5.86
1.7969,-12.77,1.91,6.79,10.43,3.71,-8.23,-16.21,-15.18,-23.52,-24.45,-23.11,-9.74,-1.61,11.14
1.8047,-7.17,-0.02,9.16,6.90,-4.32,-11.98,-13.77,-15.34,-25.09,-19.10,-7.25,1.77,12.70,18.57
1.8125,15.31,10.04,11.97,7.39,-2.82,-5.81,-20.01,-12.85,-21.84,-15.17,-5.52,8.69,11.77,18.93
1.8203,15.08,24.39,17.65,11.23,-1.93,-12.01,-20.71,-17.31,-21.95,-5.79,2.03,8.58,12.51,13.27
1.8281,27.69,20.19,4.36,1.48,-11.79,-20.56,-26.15,-18.55,-16.33,-7.89,4.78,11.47,15.97,12.82
1.8359,16.22,8.75,-7.22,-12.23,-22.57,-29.91,-25.72,-18.86,-10.70,6.88,34.29,17.85,20.48,10.52
1.8438,-1.55,-10.98,-28.37,-36.28,-28.45,-30.64,-17.47,-8.62,10.23,19.26,24.63,28.41,16.00,11.18
1.8516,-14.46,-26.24,-30.68,-37.00,-23.26,-15.45,-3.74,6.37,25.06,29.02,25.48,19.77,7.44,2.55
1.8594,-22.79,-24.50,-27.89,-21.47,-12.61,-2.41,6.77,18.84,27.00,27.32,18.58,11.78,-0.95,-10.75
1.8672,-14.73,-16.91,-16.32,-12.09,-6.35,-0.08,11.44,17.06,24.31,21.81,4.15,-8.72,-16.09,-26.02
1.8750,-16.89,-15.75,-10.43,-8.90,-1.38,7.07,8.09,10.23,10.01,3.10,-6.52,-22.28,-22.37,-23.70
1.8828,-19.26,-17.70,-16.57,-3.67,-2.23,2.11,7.33,8.47,6.47,-2.58,-18.32,-17.94,-19.32,-13.57
1.8906,-25.28,-19.54,-11.03,-7.55,-0.69,6.72,8.47,9.13,1.43,-9.93,-17.18,-16.59,-6.73,1.02
1.8984,-18.86,-14.74,-4.12,3.21,0.88,7.21,12.33,2.78,-1.77,-6.40,-13.52,-9.21,2.26,11.45
1.9063,-3.89,4.15,14.51,16.94,4.87,12.56,7.64,8.07,-10.68,-11.91,-8.06,-6.38,2.10,20.56
1.9141,9.67,16.61,22.65,19.42,7.87,4.82,2.95,-0.85,-15.85,-15.99,-11.69,-1.90,9.09,24.02
1.9219,21.68,14.66,15.91,1.60,-3.94,-2.97,-23.57,-11.17,-15.17,-7.92,-3.60,5.71,20.49,27.33
1.9297,10.45,0.28,-3.36,-11.15,-6.81,-12.66,-13.67,-11.83,-6.00,1.42,7.68,24.16,26.69,27.69
1.9375,-0.97,-13.41,-19.86,-26.93,-15.75,-8.49,-3.39,-1.49,4.97,12.59,22.10,29.50,31.02,25.04
1.9453,-13.34,-20.10,-23.92,-19.04,-4.56,-4.05,6.12,6.84,17.32,26.45,25.57,28.27,26.98,20.28
1.9531,-14.82,-28.11,-18.29,-9.90,-0.84,8.02,13.91,19.90,25.69,22.22,21.15,17.88,12.00,0.10
1.9609,-11.40,-15.16,-13.56,-2.47,5.14,12.32,18.61,11.26,20.01,20.59,11.05,4.69,-4.00,-9.89
1.9688,-14.72,-18.09,-10.12,2.06,5.40,11.52,11.85,10.72,15.68,12.81,4.68,-2.89,-5.34,-14.13
1.9766,-22.80,-20.25,-8.62,-1.16,6.24,7.67,14.59,11.76,8.56,6.04,-2.96,-7.05,-2.63,-8.37
1.9844,-26.11,-15.57,-3.54,7.59,14.38,17.41,11.31,-3.97,7.01,0.45,-5.71,-4.60,-2.45,-2.01
1.9922,-17.64,-3.44,10.42,23.59,19.68,21.50,15.29,10.89,2.76,-1.46,-4.58,-5.40,3.90,5.45
2.0000,-0.93,16.32,34.06,40.49,20.30,20.51,7.25,6.38,-9.99,-9.77,-6.64,-4.14,-2.31,4.36
2.0078,22.75,30.86,39.29,37.58,17.21,12.27,-3.35,-9.10,-12.68,-10.50,-9.69,-1.19,8.98,10.15
2.0156,32.10,32.74,34.45,17.83,10.54,-6.03,-13.15,-9.93,-16.12,-14.10,-3.65,6.18,13.73,19.65
2.0234,25.21,25.16,12.79,3.68,-0.54,-9.04,-11.28,-12.98,-14.02,2.83,12.49,20.85,30.09,24.87
2.0313,12.71,11.37,-0.06,-8.51,-7.09,-13.16,-6.16,-5.75,8.87,18.52,31.21,35.55,30.98,22.84
2.0391,12.69,4.37,-2.28,-10.03,-5.99,-7.63,1.79,4.71,22.92,27.28,39.82,29.60,16.62,5.93
2.0469,17.25,12.23,0.51,-7.60,-0.78,-1.52,5.11,14.58,29.15,28.16,29.53,21.56,7.65,-14.06
2.0547,16.98,2.12,-6.02,-8.12,-4.99,-1.77,7.35,11.88,26.88,24.36,21.96,6.93,-5.60,-17.87
2.0625,0.86,-9.00,-11.99,-11.78,-0.83,5.33,19.11,12.58,23.71,22.50,13.69,-3.31,-17.27,-26.38
2.0703,-25.40,-18.08,-17.95,-12.27,2.46,3.07,13.51,15.11,21.54,14.05,6.51,-7.48,-18.42,-18.31
2.0781,-22.79,-16.46,-9.60,-4.70,7.89,16.73,17.29,22.86,24.28,13.26,0.99,-11.83,-17.18,-19.38
2.0859,-13.34,-5.26,2.88,18.54,14.77,21.25,24.28,19.72,12.56,2.04,-15.18,-18.69,-21.67,-20.83
2.0938,3.31,10.08,12.55,27.92,19.67,19.48,19.25,12.98,1.02,-15.84,-25.05,-29.61,-25.73,-17.20
2.1016,16.83,25.94,31.18,31.01,20.30,17.79,12.62,3.79,-16.31,-22.16,-27.82,-29.56,-18.53,-6.75
2.1094,26.45,23.05,20.59,21.21,5.70,4.83,-0.35,-7.71,-22.25,-28.23,-19.57,-11.20,-2.72,12.69
2.1172,16.86,13.90,12.62,1.91,0.38,-0.05,-2.86,-6.36,-18.56,-15.95,-6.82,-1.54,9.42,20.69
2.1250,17.65,12.95,9.64,4.34,1.45,-2.01,-5.27,-1.53,-12.87,-6.16,2.12,14.56,16.39,18.66
2.1328,12.63,9.25,2.46,-0.21,4.34,-1.98,-2.15,2.98,-0.73,1.67,8.56,16.21,12.32,13.16
2.1406,17.41,9.02,7.85,-2.56,6.35,0.02,2.81,-0.18,1.84,8.90,10.46,11.02,4.34,-4.76
2.1484,11.82,1.99,-5.04,-7.92,-4.67,2.12,0.92,-3.26,3.30,2.46,7.42,3.48,0.72,-10.17
2.1563,-5.28,-11.60,-17.84,-12.39,-4.97,-5.30,1.18,0.13,9.17,7.32,3.58,1.94,-9.92,-14.84
2.1641,-19.77,-26.04,-18.85,-18.98,-2.82,-0.05,7.24,6.89,10.87,6.57,5.72,-6.14,-7.88,-16.46
2.1719,-22.92,-26.46,-17.84,-0.00,9.23,14.57,10.56,12.14,9.16,3.68,-2.31,-7.12,-15.34,-19.67
2.1797,-20.21,-9.29,4.90,15.14,14.26,20.89,16.35,-1.12,4.75,-3.58,-15.84,-19.35,-24.13,-26.40
2.1875,-7.08,7.84,23.18,27.71,20.31,16.06,4.75,-2.00,-13.99,-20.04,-23.72,-32.26,-29.66,-17.88
2.1953,8.44,17.75,23.09,23.98,13.49,6.92,-7.72,-11.55,-23.67,-31.02,-30.43,-25.03,-22.31,-12.34
2.2031,11.93,19.70,25.65,20.01,7.27,-7.70,-14.99,-21.60,-29.68,-27.13,-27.89,-12.32,-4.95,8.52
2.2109,10.91,18.45,15.87,8.50,-3.74,-13.76,-18.24,-21.75,-26.51,-24.34,-7.13,-1.31,7.41,12.55
2.2188,14.87,21.74,17.93,5.76,-1.48,-11.16,-18.90,-21.09,-19.72,-8.86,3.64,13.52,16.32,11.70
2.2266,32.91,21.96,18.65,5.29,-7.88,-16.49,-17.04,-19.06,-15.46,-2.96,6.25,11.68,12.56,6.42
2.2344,32.16,22.92,14.60,-0.80,-14.89,-20.79,-19.84,-18.21,-8.44,-1.76,5.71,12.65,5.05,2.64
2.2422,36.07,12.27,-8.77,-18.01,-18.07,-26.46,-17.70,-16.90,-5.72,9.50,10.00,11.78,5.25,-7.43
2.2500,8.44,-12.07,-22.08,-31.07,-30.57,-23.03,-20.03,-7.85,9.64,17.09,11.76,8.70,-3.69,-12.75
2.2578,-16.94,-26.28,-35.28,-34.53,-25.07,-14.27,-9.62,5.69,21.50,23.01,12.86,7.89,-8.57,-15.48
2.2656,-22.56,-28.21,-26.41,-23.59,-9.75,-3.42,2.67,8.78,21.30,18.28,8.04,-9.21,-17.51,-21.48
2.2734,-13.75,-16.14,-13.14,-8.52,-4.06,1.77,11.89,10.58,17.24,5.10,-9.46,-25.64,-26.71,-28.87
2.2813,-12.23,-5.49,-3.00,2.78,5.40,3.20,2.89,8.14,-2.47,-27.53,-22.09,-31.43,-36.38,-27.31
2.2891,-4.60,-7.73,-1.49,4.11,-1.51,1.80,0.12,-3.11,-9.05,-26.02,-26.96,-32.26,-23.78,-11.05
2.2969,-10.35,-8.70,9.93,-0.02,-5.27,-1.07,-4.83,-9.37,-21.35,-25.00,-29.50,-23.10,-9.46,5.63
2.3047,-5.62,-3.25,0.34,1.54,-4.40,-2.76,-2.08,-8.08,-21.08,-23.84,-15.66,-9.02,3.65,17.04
2.3125,-2.60,3.52,2.56,5.08,-14.34,-1.55,-4.82,-5.76,-20.53,-14.27,-11.87,-2.30,5.70,17.12
2.3203,14.61,12.79,8.35,2.82,1.69,-5.47,-4.77,-7.06,-19.77,-12.18,-4.61,4.83,8.67,15.66
2.3281,17.92,14.07,7.00,-0.60,-12.10,-11.07,-16.66,-16.59,-15.43,-15.58,-1.55,10.30,12.60,15.47
2.3359,10.19,-2.53,-15.35,-23.29,-14.71,-21.21,-18.56,-18.31,-9.95,0.55,9.08,12.84,18.89,17.16
2.3438,-6.84,-20.31,-27.90,-31.63,-21.54,-18.81,-11.85,-9.96,0.80,6.43,15.43,21.31,19.03,14.44
2.3516,-24.76,-29.39,-31.51,-34.00,-12.78,-8.21,0.75,1.14,17.21,20.32,21.46,19.57,19.27,11.78
2.3594,-25.73,-31.31,-24.09,-17.91,-7.40,3.61,5.73,8.81,19.12,22.77,17.25,13.29,2.21,-1.66
2.3672,-27.98,-18.53,-15.81,-3.92,1.97,5.69,7.76,10.88,11.27,7.42,6.15,-7.23,-9.52,-16.95
2.3750,-24.44,-19.28,-9.38,4.91,9.05,6.47,8.82,4.62,5.94,-5.64,-6.51,-16.17,-13.10,-8.79
2.3828,-21.60,-17.53,-3.98,0.87,1.05,1.29,0.06,-4.70,-3.87,-11.91,-10.48,-13.48,-9.53,-6.12
2.3906,-22.43,-15.43,-5.86,7.56,1.71,-0.72,-1.21,-6.73,-8.54,-8.14,-6.71,-9.10,1.32,11.80
2.3984,-17.60,-6.02,7.85,9.82,11.08,2.90,2.63,-4.09,-11.32,-11.63,-5.56,3.87,9.87,17.07
2.4063,-1.95,13.65,24.81,23.39,14.07,5.00,0.48,-6.27,-15.31,-11.30,-5.28,9.03,9.94,14.57
2.4141,19.16,28.61,29.56,26.71,8.04,-4.92,-8.20,-10.81,-15.58,-12.03,-2.35,11.60,19.86,17.68
2.4219,25.45,23.27,3.54,7.78,-3.59,-13.04,-19.11,-16.12,-17.25,-2.07,4.61,18.38,23.56,26.16
2.4297,19.19,15.22,0.30,-11.86,-12.60,-19.85,-16.77,-14.82,-9.65,10.19,21.19,29.78,26.17,27.70
2.4375,6.45,-3.10,-14.81,-24.20,-17.81,-21.10,-13.49,7.78,11.26,20.40,36.59,34.65,31.82,21.11
2.4453,-6.12,-12.53,-18.83,-21.01,-12.64,-10.90,-3.16,9.98,24.46,38.30,34.24,32.60,24.60,10.71
2.4531,-4.40,-12.70,-14.30,-16.69,-10.83,2.74,12.88,22.81,37.14,38.25,34.12,22.01,3.14,-6.55
2.4609,-1.78,-8.14,-9.36,-7.19,1.37,8.38,12.74,19.90,28.24,29.06,19.76,0.34,-13.10,-17.46
2.4688,-5.41,-12.67,-8.95,-12.44,1.37,4.96,15.34,14.74,26.56,15.79,7.50,-10.25,-15.22,-22.33
2.4766,-20.02,-16.99,-19.05,-25.86,-3.44,6.33,16.52,18.76,16.78,11.70,2.38,-13.19,-12.25,-13.03
2.4844,-20.56,-22.92,-9.82,-3.19,2.57,14.58,18.52,19.90,18.46,9.28,-3.17,-13.43,-8.96,-3.62
2.4922,-16.09,-6.56,-0.89,12.42,14.87,18.78,22.67,18.27,11.60,10.70,-6.10,-10.08,-12.57,1.05
2.5000,1.85,9.26,23.20,39.91,18.21,21.13,17.58,11.78,2.72,-13.16,-11.76,-16.33,-4.03,6.24
2.5078,20.71,24.34,32.06,32.50,16.00,17.99,9.89,5.72,-13.28,-16.92,-18.73,-10.71,-3.92,9.19
2.5156,26.53,25.25,21.10,19.17,11.68,7.09,1.11,-1.77,-16.89,-12.33,-12.27,-2.91,9.01,20.39
2.5234,15.42,15.30,9.89,2.46,-0.93,-2.05,-2.26,-5.10,-14.03,-8.54,1.96,18.79,23.89,28.57
2.5313,10.12,4.41,-4.39,-11.65,-2.22,-7.11,-0.37,2.46,-1.33,7.65,20.76,28.11,25.77,24.35
2.5391,1.80,-0.19,-3.91,-6.85,-2.17,2.53,9.32,9.04,10.93,19.62,26.80,24.22,20.80,16.25
2.5469,2.22,4.33,1.09,-4.49,6.51,13.49,12.15,10.35,18.90,19.18,20.08,12.97,10.61,2.56
2.5547,7.05,1.39,0.80,-2.78,10.74,11.35,13.53,13.08,19.39,13.37,11.69,7.28,-2.81,-10.68
2.5625,-4.60,-9.40,-10.78,-2.48,7.58,11.68,8.03,10.16,18.31,12.23,4.54,-1.63,-5.55,-15.98
2.5703,-16.03,-18.01,-11.05,-0.64,11.47,10.83,8.22,9.91,11.93,5.86,3.34,-7.05,-6.08,-13.37
2.5781,-24.59,-16.49,-6.65,5.24,17.77,17.94,18.80,15.23,9.91,3.88,-4.95,-4.73,-8.37,-13.06
2.5859,-14.82,-5.69,17.18,27.25,27.31,20.29,15.99,11.91,6.30,-0.69,-12.09,-11.49,-11.07,-10.77
2.5938,1.63,19.09,29.41,41.57,31.14,20.32,13.36,3.53,-5.12,-13.97,-20.33,-21.87,-13.01,-11.34
2.6016,22.61,35.55,37.81,35.99,20.42,8.98,-1.23,-7.30,-22.13,-25.66,-18.97,-12.80,-10.95,1.42
2.6094,26.15,31.33,33.72,25.21,8.13,1.07,-14.97,-17.49,-28.26,-24.93,-10.55,-2.24,6.00,6.30
2.6172,20.91,29.49,21.85,6.81,-0.51,-12.28,-13.70,-18.89,-21.42,-7.86,-3.02,13.28,16.58,27.77
2.6250,21.08,22.26,17.29,5.83,-6.00,-8.94,-10.51,-7.41,-10.77,4.46,12.40,18.19,17.15,11.44
2.6328,22.10,18.55,13.92,0.47,-1.40,-11.63,-11.03,-0.54,-2.03,15.73,21.09,16.46,9.41,4.32
2.6406,32.17,25.17,13.65,1.38,-6.56,-8.22,-2.14,-0.34,5.47,17.20,19.33,11.46,0.69,-10.55
2.6484,26.28,13.46,0.82,-8.97,-10.82,-10.37,-6.85,2.10,12.32,11.98,13.46,1.57,-6.08,-22.10
2.6563,8.06,-1.75,-32.58,-20.60,-15.81,-13.18,-4.84,4.68,13.52,13.63,12.09,1.50,-14.89,-25.74
2.6641,-13.11,-18.58,-26.63,-20.84,-15.32,-2.57,3.51,13.30,23.82,14.59,8.01,-7.18,-16.09,-28.26
2.6719,-21.83,-24.89,-19.69,-9.23,-5.45,5.35,8.95,13.25,22.31,8.75,-4.95,-17.36,-23.57,-25.76
2.6797,-14.74,-9.20,-2.58,8.29,9.86,16.52,18.90,17.51,10.43,1.72,-12.69,-30.84,-34.66,-33.88
2.6875,4.20,9.71,12.05,19.88,14.39,11.92,15.95,4.75,-5.00,-20.13,-27.77,-36.86,-32.61,-26.84
2.6953,6.72,14.19,14.25,14.43,8.63,7.81,1.88,-3.21,-21.41,-32.89,-33.57,-37.00,-30.40,-15.56
2.7031,12.30,7.94,11.14,12.56,3.06,-5.28,-6.14,-16.41,-26.45,-30.15,-35.04,-25.17,-13.88,-0.27
2.7109,6.80,7.71,9.26,3.23,-3.61,-9.25,-9.54,-9.39,-23.14,-23.13,-15.62,-10.72,2.39,16.83
2.7188,8.90,8.91,9.33,2.10,-3.77,-6.68,-6.52,-12.51,-15.75,-17.24,-5.12,-2.93,11.83,17.39
2.7266,16.59,13.79,8.43,4.67,0.03,-8.07,-4.07,-8.27,-12.42,-14.13,-3.86,2.65,13.65,10.34
2.7344,22.43,12.25,6.66,-1.97,-10.27,-10.10,-13.85,-13.96,-12.77,-4.92,-1.09,2.26,5.42,8.15
2.7422,15.30,3.87,-6.25,-17.81,-14.84,-16.41,-18.22,-16.82,-6.85,0.03,5.37,9.05,4.03,2.58
2.7500,-2.56,-16.74,-28.27,-26.00,-18.81,-16.72,-14.32,-11.09,0.61,1.90,9.77,5.52,5.72,1.68
2.7578,-24.46,-34.89,-32.81,-30.50,-13.04,4.03,-1.79,-1.65,5.48,9.13,9.43,8.53,-2.90,1.25
2.7656,-29.54,-33.60,-25.71,-14.46,0.36,2.61,8.06,6.72,11.16,10.93,4.22,-6.54,-8.26,-11.17
2.7734,-26.50,-17.00,-9.19,0.41,8.61,7.63,10.12,1.08,7.48,-2.42,-11.56,-12.85,-21.58,-24.29
2.7813,-18.78,-2.95,6.80,17.25,5.97,6.79,2.84,-8.12,-7.63,-18.90,-23.45,-20.83,-22.03,-15.87
2.7891,-11.09,-5.30,7.18,9.98,7.36,-2.61,-4.81,-15.08,-21.35,-22.89,-30.19,-35.52,-18.64,-8.82
2.7969,-14.11,-4.02,2.50,4.16,-0.10,-8.43,-11.95,-16.85,-22.24,-23.27,-22.24,-11.61,-2.46,10.65
2.8047,-5.06,1.38,5.25,10.86,-0.03,-4.65,-14.03,-13.52,-24.01,-22.98,-8.08,-3.41,7.91,13.65
2.8125,2.35,11.16,16.93,11.68,-1.38,-6.60,-13.61,-14.65,-23.83,-15.71,-6.03,4.46,12.59,18.26
2.8203,17.51,21.76,20.24,11.33,-1.07,-14.46,-14.70,-20.15,-20.51,-9.29,-1.15,13.68,12.14,15.21
2.8281,27.83,25.72,14.06,-0.09,-13.66,-19.81,-23.43,-19.35,-17.50,-5.08,6.82,15.09,13.61,13.85
2.8359,19.66,11.24,-9.35,-25.00,-21.71,-24.77,-25.57,-21.89,-7.96,7.37,17.48,24.52,19.00,9.68
2.8438,4.73,-10.15,-29.74,-37.56,-32.93,-30.13,-21.98,-11.21,9.50,22.99,24.34,26.10,20.54,9.84
2.8516,-12.22,-21.66,-37.57,-39.48,-25.62,-21.88,-6.78,5.82,25.88,25.65,26.91,25.66,11.91,-2.38
2.8594,-15.80,-24.94,-28.55,-28.00,-17.83,-8.44,7.44,18.86,31.14,27.74,24.47,11.03,-3.82,-16.83
2.8672,-18.11,-15.60,-16.90,-13.40,-6.42,6.07,10.56,13.86,27.21,14.88,3.54,-8.02,-19.12,-26.03
2.8750,-12.83,-17.44,-16.25,-7.49,-2.62,13.86,12.30,9.80,14.99,5.56,-11.48,-21.29,-24.10,-22.97
2.8828,-14.56,-21.15,-13.91,-3.98,-2.26,6.10,2.07,5.68,0.63,-7.15,-17.67,-20.62,-18.50,-7.09
2.8906,-23.55,-17.70,-10.63,-2.24,-4.07,3.40,4.57,5.94,0.05,-5.33,-17.71,-2.67,-6.02,3.15
2.8984,-15.69,-13.89,-6.40,8.52,6.02,4.83,7.46,8.04,-0.75,-12.70,-8.99,-5.12,-1.31,12.33
2.9063,-1.91,1.45,10.06,15.94,9.94,8.96,10.30,2.85,-8.25,-14.62,-7.70,-2.39,8.94,19.98
2.9141,15.85,13.29,16.11,13.29,8.73,8.55,1.26,0.18,-12.45,-13.67,-6.39,-3.64,8.52,17.54
2.9219,19.23,16.36,9.37,5.37,-2.05,-2.91,-10.14,-7.10,-18.79,-9.64,-6.10,7.26,19.40,23.00
2.9297,15.43,6.37,-6.49,-14.15,-13.39,-7.28,-8.43,-13.11,-11.07,2.44,11.03,22.96,32.39,30.34
2.9375,-2.79,-16.27,-21.71,-25.31,-12.63,-8.75,-8.13,1.51,7.40,13.07,24.49,32.19,30.57,28.21
2.9453,-12.42,-18.70,-20.66,-19.95,-6.05,-1.57,6.28,7.91,16.45,27.02,29.07,31.48,21.30,15.16
2.9531,-11.57,-19.26,-19.28,-8.84,0.72,7.88,14.60,12.86,26.89,28.94,21.69,18.52,9.08,4.18
2.9609,-11.50,-11.86,-5.98,1.01,8.54,10.94,11.77,16.33,21.06,20.77,12.43,2.98,-1.91,-11.70
2.9688,-20.29,-13.03,-10.68,3.82,10.46,8.88,10.92,14.15,13.60,8.83,6.91,-2.56,-5.34,-8.52
2.9766,-27.91,-18.13,-9.81,-2.33,5.73,8.48,8.68,5.84,11.22,3.95,-1.46,-3.75,-2.68,-3.39
2.9844,-32.03,-20.28,-5.39,11.86,12.55,15.76,9.37,7.01,3.59,2.61,-3.87,-1.39,-2.54,-1.38
2.9922,-23.89,-7.49,11.38,26.29,19.20,17.73,11.95,7.26,4.01,-0.42,-5.88,-0.95,-0.59,5.79
3.0000,1.42,18.94,31.12,50.82,20.94,21.22,12.04,6.03,-7.52,-5.39,-7.37,-7.36,-5.82,9.10
3.0078,21.88,33.13,39.96,33.89,18.38,9.87,-0.88,-5.10,-14.59,-17.23,-7.10,-3.58,4.86,12.81
3.0156,26.64,32.57,30.21,23.71,5.57,-5.40,-6.84,-14.63,-21.66,-13.98,3.67,5.80,17.21,15.27
3.0234,25.08,25.38,12.99,6.37,-7.91,-9.51,-17.94,-9.23,-6.31,-1.04,14.01,22.55,29.93,28.08
3.0313,19.96,8.68,3.93,-7.08,-9.17,-14.22,-6.13,1.47,6.71,16.25,28.19,29.19,25.57,16.69
3.0391,16.41,11.81,-2.88,-11.84,-3.88,-7.85,-2.91,11.17,15.07,32.32,34.13,27.77,19.26,9.68
3.0469,18.70,5.49,-2.84,-2.57,-3.05,-3.75,3.48,17.97,22.06,28.32,29.70,21.84,4.17,-10.83
3.0547,12.32,6.86,-4.51,-10.46,-0.98,2.25,11.07,16.31,22.31,23.15,18.54,7.90,-11.36,-24.28
3.0625,2.09,-7.96,-11.78,-9.02,-0.37,-1.13,7.69,18.25,23.18,16.66,6.08,-3.90,-13.43,-21.14
3.0703,-15.10,-13.15,-14.84,-14.76,1.16,9.06,9.70,16.28,25.50,15.02,5.29,-12.00,-20.48,-24.05
3.0781,-17.11,-18.34,-15.14,-4.28,6.06,15.95,24.08,21.41,23.28,7.65,-2.76,-13.18,-21.47,-20.08
3.0859,-15.32,-4.67,3.56,17.68,18.53,20.98,26.33,19.70,16.23,-3.49,-13.90,-18.80,-22.72,-19.94
3.0938,1.57,10.11,19.43,34.09,19.95,25.09,24.04,11.64,3.62,-12.35,-27.36,-29.21,-25.55,-13.40
3.1016,17.64,28.63,27.67,29.09,15.02,19.19,6.53,-0.69,-14.27,-27.58,-32.26,-23.46,-17.62,-1.43
3.1094,24.02,26.01,26.04,19.56,8.33,2.98,1.55,-7.59,-26.17,-26.61,-21.68,-17.50,-3.89,6.64
3.1172,18.27,17.51,11.32,2.70,5.03,-0.19,-3.84,-5.61,-21.28,-14.80,-6.40,4.32,12.79,20.99
3.1250,11.78,12.18,8.87,1.94,-1.59,-3.71,-0.19,-5.08,-10.30,-7.03,4.26,10.16,20.82,22.24
3.1328,19.15,11.55,6.50,-1.98,3.02,2.40,-0.65,1.64,-2.40,-0.04,6.81,15.09,15.41,7.42
3.1406,20.76,12.41,3.83,-1.55,2.78,4.31,-2.78,0.23,13.73,1.68,7.02,8.71,4.57,1.31
3.1484,15.57,3.76,-0.37,-7.98,-0.87,-4.76,-5.24,-1.71,-11.49,3.10,4.93,1.29,-1.03,-11.97
3.1563,-4.30,-10.03,-19.14,-16.72,-2.22,1.19,2.09,1.65,5.28,9.03,2.72,-3.12,-5.38,-8.37
3.1641,-17.66,-26.58,-22.40,-31.11,-3.81,-0.15,4.55,6.81,14.27,9.82,-1.12,-6.16,-7.21,-16.56
3.1719,-22.86,-25.81,-27.94,-5.94,4.17,10.34,13.12,8.61,10.75,0.43,-1.12,-6.59,-24.95,-23.55
3.1797,-16.42,0.97,4.37,18.15,14.72,20.22,9.80,6.48,6.20,-10.73,-11.41,-19.86,-20.18,-26.40
3.1875,0.14,6.74,18.00,26.04,20.28,11.01,7.14,-1.13,-14.89,-21.45,-25.41,-31.54,-22.97,-20.61
3.1953,9.79,18.38,24.73,26.81,12.66,3.05,-8.88,-12.08,-22.87,-29.58,-32.85,-25.50,-18.24,-9.11
3.2031,7.23,17.11,23.41,16.93,4.47,-8.66,-12.14,-19.59,-32.79,-32.21,-22.51,-13.49,-1.22,5.42
3.2109,7.02,16.78,11.68,9.27,0.90,-9.10,-15.06,-22.78,-30.46,-18.21,-13.32,0.11,6.05,18.60
3.2188,16.10,20.09,17.53,5.31,-4.00,-9.03,-16.58,-17.56,-36.37,-8.53,1.22,12.84,14.30,15.09
3.2266,22.58,21.28,13.38,4.32,-7.00,-10.32,-4.11,-17.11,-17.75,-2.00,9.14,7.61,10.75,8.10
3.2344,27.15,26.35,13.72,-4.26,-15.46,-22.14,-18.65,-14.56,-8.54,-2.06,4.82,11.31,7.42,-4.64
3.2422,24.53,6.88,-7.62,-20.60,-19.60,-23.84,-22.23,-17.21,-5.78,5.27,12.02,10.83,3.18,-8.19
3.2500,6.94,-13.36,-23.13,-33.61,-26.63,-23.96,-18.38,-7.17,3.05,10.97,11.14,10.88,2.40,-10.55
3.2578,-18.01,-29.79,-35.10,-38.86,-22.50,-12.27,-10.14,-0.57,20.94,18.63,17.51,8.74,-4.39,-14.42
3.2656,-19.46,-26.09,-31.93,-24.98,-14.84,-3.23,6.93,10.13,19.49,16.38,4.06,-3.35,-16.93,-26.31
3.2734,-15.70,-15.26,-11.64,-3.47,0.41,5.61,21.28,12.79,12.90,6.01,-6.24,-25.59,-26.83,-30.98
3.2813,-13.14,-10.86,-5.50,1.64,-1.54,4.38,10.11,6.68,-1.47,-9.16,-23.43,-34.18,-36.64,-30.75
3.2891,-7.96,-3.08,0.83,1.29,-4.28,0.87,-0.44,-4.15,-10.65,-20.09,-30.13,-28.48,-22.42,-14.76
3.2969,-13.27,-11.10,-0.41,1.72,-3.85,-6.84,-2.66,-9.00,-19.12,-27.01,-22.95,-25.18,-15.32,5.37
3.3047,-11.73,-8.34,-0.80,6.34,-0.76,-6.67,-8.26,-6.50,-15.16,-18.63,-21.64,-7.32,0.46,17.72
3.3125,-4.00,6.16,7.92,6.20,-1.99,1.44,-5.73,-6.88,-19.61,-18.66,-8.92,-3.92,10.12,20.10
3.3203,12.18,16.12,14.43,5.07,-4.68,-8.24,-7.78,-13.06,-15.02,-12.42,-4.96,5.03,14.05,21.77
3.3281,17.16,15.67,1.57,-0.26,-8.17,-10.06,-10.98,-12.44,-20.24,-11.30,-4.11,6.48,17.26,16.51
3.3359,9.48,-3.66,-11.11,-20.72,-14.00,-21.01,-21.62,-16.62,-14.69,-6.61,3.91,16.61,16.38,5.24
3.3438,-6.09,-23.84,-25.99,-34.75,-19.07,-16.33,-16.51,-9.48,-0.19,6.21,19.86,19.47,24.01,20.91
3.3516,-26.87,-34.90,-34.80,-31.45,-16.51,-4.84,-1.49,2.69,10.73,19.05,25.70,20.02,20.10,12.05
3.3594,-29.27,-28.31,-29.25,-18.52,-6.15,-0.82,11.33,12.10,20.30,19.30,15.04,9.60,6.62,-7.20
3.3672,-25.28,-23.51,-17.22,-1.47,0.99,8.04,11.94,13.34,12.91,13.16,2.63,-7.14,-7.70,-15.61
3.3750,-23.24,-15.54,-4.55,6.96,6.96,10.90,3.55,4.78,2.77,-5.47,-12.08,-13.01,-17.22,-11.83
3.3828,-22.98,-13.64,-3.20,3.13,3.32,1.68,-2.37,-0.99,-7.04,-7.79,-15.64,-15.12,-7.05,-3.07
3.3906,-26.03,-17.80,-6.27,2.37,3.64,3.98,-1.56,-1.03,-9.89,-13.58,-6.36,-4.38,-1.60,10.36
3.3984,-23.79,-4.81,6.03,11.01,5.42,5.88,-3.58,-3.83,-9.59,-11.27,-4.66,-0.82,7.32,16.14
3.4063,-4.41,15.55,17.42,23.04,14.27,7.75,-4.86,-7.92,-12.49,-10.98,0.86,6.72,15.40,17.45
3.4141,16.24,25.51,28.75,23.09,7.63,-0.68,-5.93,-11.32,-17.25,-8.85,2.78,11.02,16.07,16.49
3.4219,27.07,29.72,20.91,7.55,-5.55,-11.34,-14.82,-19.03,-14.83,-2.06,9.96,18.09,21.31,23.11
3.4297,22.60,12.23,1.99,-10.84,-14.87,-18.09,-17.95,-14.57,-9.02,5.88,22.27,29.50,26.01,28.55
3.4375,2.69,-1.24,-17.42,-26.73,-18.55,-22.08,-17.15,-6.47,7.94,27.76,32.72,39.21,28.62,18.11
3.4453,-3.53,-11.71,-19.60,-28.66,-13.94,-6.95,-4.89,11.70,24.08,35.46,41.82,35.27,24.26,5.90
3.4531,-4.67,-10.11,-18.30,-18.68,-8.84,-2.06,9.87,21.16,35.70,32.87,33.13,18.54,3.16,-6.39
3.4609,-5.15,-6.37,-14.38,-9.29,-3.01,5.91,12.36,20.02,31.30,24.52,18.33,2.39,-13.22,-16.80
3.4688,-5.94,-14.47,-13.30,-6.25,2.22,3.65,14.17,17.90,22.99,16.27,4.93,9.93,-17.14,-20.74
3.4766,-19.13,-17.30,-19.59,-5.26,2.80,4.38,16.32,16.68,17.33,13.52,2.37,-14.38,-16.32,-13.05
3.4844,-24.81,-17.65,-8.56,-1.68,5.64,15.77,19.04,17.17,18.84,7.49,-5.96,-10.75,-11.32,-6.09
3.4922,-19.87,-9.37,-0.12,14.48,16.35,17.90,22.87,21.90,11.58,3.70,-8.19,-14.65,-9.87,1.65
3.5000,1.03,13.19,16.76,31.83,22.94,19.00,16.64,13.93,0.82,-2.96,-11.39,-16.28,-4.09,3.81
3.5078,20.14,23.25,26.64,30.83,19.34,11.19,10.21,-0.64,-10.50,-16.86,-17.97,-14.33,-4.04,9.43
3.5156,27.68,36.61,24.40,12.45,5.45,7.78,1.08,-2.50,-18.69,-15.96,-10.40,-0.52,13.68,20.64
3.5234,17.19,12.84,8.66,2.96,-2.81,-3.71,-6.86,-3.48,-12.33,-1.36,4.50,11.32,22.08,30.98
3.5313,10.74,2.00,-3.65,-7.65,-4.88,2.04,-2.48,0.25,4.62,10.07,19.12,23.26,25.92,23.05
3.5391,6.73,-5.11,-8.03,-2.91,1.94,-4.75,10.98,9.41,15.65,17.99,22.96,21.05,20.21,16.49
3.5469,5.97,3.68,-3.26,-0.02,8.65,11.13,10.96,21.33,22.21,27.02,21.24,15.74,10.77,1.13
3.5547,7.82,-1.82,-3.90,3.12,6.05,7.63,13.49,11.34,19.83,16.08,12.49,1.49,-1.54,-15.15
3.5625,-5.93,-9.14,-9.87,-5.37,7.60,5.64,10.14,9.62,14.26,10.91,5.02,-9.79,-11.75,-15.58
3.5703,-21.13,-19.37,-15.99,-5.80,4.86,9.98,14.58,8.72,13.29,10.57,5.09,-5.16,-10.50,-14.38
3.5781,-23.26,-19.06,-3.86,5.61,16.93,21.78,16.61,12.53,9.64,2.49,-3.55,-6.76,-10.29,-10.41
3.5859,-19.11,-1.87,9.69,14.87,28.00,27.32,20.91,15.52,1.60,-4.31,-8.56,-15.28,-13.68,-12.89
3.5938,4.11,16.17,29.94,39.98,26.67,19.60,9.06,2.69,-10.09,-16.50,-21.78,-21.32,-16.24,-10.93
3.6016,18.57,32.69,37.28,40.97,19.53,13.67,-1.24,-5.58,-24.40,-22.16,-24.10,-19.97,-8.49,-2.62
3.6094,26.17,30.73,36.54,27.91,8.16,-1.13,-11.81,-15.31,-27.82,-23.79,-16.08,-5.53,1.79,7.35
3.6172,26.95,24.16,22.16,10.81,-3.63,-5.82,-18.30,-19.01,-20.91,4.71,-2.45,11.96,19.43,14.51
3.6250,22.42,22.53,12.30,0.55,-3.05,-7.09,-12.41,-9.04,-11.09,4.30,12.64,20.10,18.61,13.45
3.6328,22.60,18.40,12.81,0.78,-2.32,-10.77,-9.13,-3.43,1.33,13.70,19.69,21.44,11.53,6.47
3.6406,25.60,19.50,19.29,0.08,-8.91,-11.71,-9.41,0.99,8.65,18.40,15.52,8.04,0.35,-10.52
3.6484,27.86,14.09,0.21,-10.39,-13.28,-12.31,-7.61,1.28,9.77,17.92,12.50,1.24,-9.39,-20.19
3.6563,12.17,-4.92,-16.17,-21.81,-11.34,-8.55,-8.12,1.61,14.81,13.01,6.61,3.17,-14.73,-18.94
3.6641,-7.76,-17.79,-25.98,-23.35,-11.86,-2.48,5.07,7.63,23.65,14.26,8.46,-6.50,-20.35,-25.21
3.6719,-16.78,-22.52,-15.97,-14.24,0.10,4.85,15.32,16.00,19.55,13.95,-3.97,-13.71,-21.82,-32.62
3.6797,-15.50,-12.50,-0.06,11.23,8.44,12.04,20.38,12.58,13.98,-3.69,-19.38,-25.65,-34.33,-29.22
3.6875,-2.39,2.37,16.01,23.13,15.87,10.87,8.91,5.59,-3.77,-17.78,-26.98,-38.68,-34.04,-30.27
3.6953,12.46,14.48,14.09,19.55,6.52,7.57,-0.48,-3.71,-19.52,-33.16,-37.81,-33.66,-28.67,-14.97
3.7031,5.90,7.31,7.35,8.82,-0.39,-4.33,-4.61,-11.90,-29.52,-31.91,-33.15,-24.75,-13.64,1.44
3.7109,6.71,8.28,7.96,5.50,0.23,-2.48,-8.26,-12.23,-22.86,-23.41,-17.48,-9.65,1.75,14.19
3.7188,5.58,9.63,4.89,5.59,0.90,-5.66,-4.95,-9.38,-16.44,-13.50,-8.34,-0.11,9.03,13.57
3.7266,15.04,13.42,11.92,-0.69,-4.10,-2.27,-9.87,-8.63,-17.43,-8.51,-5.29,0.23,7.87,14.94
3.7344,19.41,13.52,2.22,0.65,-10.18,-7.89,-8.41,-8.83,-10.91,-11.73,2.02,2.45,5.47,3.65
3.7422,14.83,3.52,-11.13,-13.60,-10.88,-12.06,-17.99,-14.29,-9.35,-4.41,1.04,7.62,3.84,2.19
3.7500,-1.65,-21.87,-24.84,-33.39,-17.16,-17.99,-13.71,-11.96,-1.57,4.69,8.90,9.90,6.52,-0.60
3.7578,-24.69,-29.68,-30.06,-31.90,-9.33,-8.46,-3.96,2.09,10.03,7.74,6.00,5.86,-0.23,-3.16
3.7656,-32.01,-32.60,-23.09,-12.66,-5.22,-0.64,4.46,2.21,15.05,8.80,-0.78,-3.88,-8.42,-14.86
3.7734,-24.64,-20.90,-6.58,5.80,10.31,9.12,10.12,2.21,7.47,-5.45,-6.69,-18.11,-21.58,-24.99
3.7813,-18.18,-9.93,0.37,11.55,6.60,8.53,-6.27,-4.50,-7.72,-19.69,-22.53,-23.73,-21.67,-17.01
3.7891,-11.71,-5.12,6.00,15.57,4.29,-1.47,-9.90,-10.29,-18.68,-23.22,-25.38,-16.95,-13.42,-5.98
3.7969,-8.50,1.96,8.63,6.66,3.09,-8.70,-12.19,-17.00,-26.46,-27.96,-16.99,-15.20,1.36,10.96
3.8047,-10.79,3.36,10.00,7.84,-4.00,-6.44,-14.55,-13.62,-25.03,-21.94,1.28,-0.44,12.67,14.11
3.8125,4.53,10.27,12.84,13.68,-1.46,-6.02,-11.78,-17.68,-21.49,-11.89,-0.88,7.75,12.96,17.49
3.8203,21.36,23.37,23.40,6.64,-2.45,-14.39,-17.96,-14.34,-15.77,-5.75,2.76,14.22,15.56,13.18
3.8281,29.59,24.08,9.50,-0.67,-15.81,-21.90,-27.38,-18.59,-20.38,-5.04,10.75,16.21,15.59,10.50
3.8359,20.07,8.38,-2.60,-21.03,-22.79,-26.92,-22.30,-16.90,-10.75,3.77,13.52,16.87,21.59,16.89
3.8438,0.98,-14.67,-28.16,-39.90,-28.06,-28.11,-21.78,-5.35,5.04,22.55,26.11,21.34,16.12,12.13
3.8516,-16.51,-28.88,-36.91,-41.13,-25.84,-18.51,-10.17,9.36,23.27,28.04,30.55,22.40,12.60,-1.73
3.8594,-20.37,-24.56,-32.23,-27.81,-10.64,-14.38,2.67,18.23,30.94,30.49,24.21,11.11,-1.25,-11.72
3.8672,-13.00,-18.26,-18.54,-15.56,-9.64,2.98,14.20,13.06,31.56,20.87,8.90,-5.91,-16.97,-27.23
3.8750,-15.56,-12.48,-9.69,-10.45,-2.74,2.36,9.77,7.08,14.66,3.07,-8.07,-14.73,-21.50,-18.34
3.8828,-17.81,-18.71,-15.65,-5.43,-3.73,2.56,5.73,5.69,6.09,-5.70,-11.42,-15.76,-29.12,-6.63
3.8906,-19.73,-17.85,-13.22,-6.28,-0.13,7.25,5.88,5.36,0.45,-6.56,-11.18,-17.98,-4.71,1.81
3.8984,-19.39,-9.82,-1.60,4.75,7.76,10.77,4.80,5.31,-3.47,-6.76,-11.08,-5.74,-0.45,11.99
3.9063,-2.60,4.20,8.46,14.96,6.46,9.11,7.17,1.68,-5.00,-14.41,-10.10,-8.17,6.03,17.07
3.9141,11.49,15.09,18.61,16.03,10.58,8.78,1.21,-6.50,-10.86,-11.76,-12.45,-2.98,12.76,23.66
3.9219,20.34,19.73,14.14,8.86,-0.10,-2.35,-10.68,-8.12,-19.23,-7.57,1.15,11.40,21.36,28.37
3.9297,13.89,4.42,-5.92,-12.89,-12.95,-12.29,-8.16,-8.83,-7.26,0.67,11.28,23.95,27.45,33.21
3.9375,-6.78,-13.27,-18.16,-25.40,-11.62,-10.57,-9.59,1.64,9.04,15.30,23.46,39.21,35.16,25.56
3.9453,-10.95,-21.88,-21.78,-21.30,-5.16,0.29,4.48,8.46,19.68,26.12,29.09,31.86,28.53,13.24
3.9531,-18.27,-20.66,-20.10,-9.76,-0.08,9.17,14.56,16.22,27.87,28.44,26.47,18.90,13.89,1.40
3.9609,-12.46,-15.88,-5.86,1.08,9.35,12.68,15.31,11.18,22.16,18.99,13.24,4.44,0.68,-11.10
3.9688,-14.23,-12.73,-11.63,1.41,11.21,9.43,12.12,6.62,10.93,9.38,-0.83,-6.32,-10.14,-7.45
3.9766,-25.20,-19.37,-8.10,0.59,10.85,10.82,11.42,4.76,9.56,2.69,0.90,-2.92,-5.88,-2.51
3.9844,-32.60,-18.72,-0.13,7.46,12.60,18.02,12.29,6.75,4.27,4.22,-0.94,-2.18,-3.97,1.24
3.9922,-23.29,-3.43,13.54,26.46,21.34,18.22,18.34,11.15,2.97,0.16,-2.51,1.02,1.60,5.15
4.0000,1.28,17.47,28.87,39.20,26.69,21.40,14.18,2.98,-7.96,-12.12,-10.40,-7.19,0.09,9.09
4.0078,22.94,30.89,41.91,36.23,15.48,9.19,-1.09,-2.30,-14.36,-12.99,-8.51,1.22,2.44,7.20
4.0156,31.83,36.54,32.65,25.14,5.88,-4.52,-7.30,-9.23,-16.22,-13.47,-1.51,7.49,14.37,22.77
4.0234,25.03,22.41,16.48,4.15,-8.20,-10.93,-12.34,-8.61,-8.54,5.40,11.81,24.44,24.00,24.98
4.0313,14.79,12.07,1.54,-11.55,-9.87,-11.91,-9.96,-3.69,6.14,14.76,31.67,29.71,32.76,21.20
4.0391,13.25,5.59,1.73,-9.16,-4.89,-7.65,1.23,8.49,17.60,22.26,30.60,32.70,19.44,5.64
4.0469,12.43,5.88,1.65,-3.91,-3.39,-3.34,7.49,13.71,23.76,28.00,29.03,19.78,3.21,-12.62
4.0547,16.58,1.92,-5.35,-2.97,-5.12,3.56,4.85,14.46,28.69,27.87,15.67,4.40,-7.57,-20.20
4.0625,2.42,-8.30,-13.92,-10.56,-4.12,-0.54,8.80,12.89,24.66,17.73,20.71,-1.46,-15.26,-24.73
4.0703,-13.05,-15.45,-18.06,-13.63,-1.62,9.44,12.59,19.81,21.40,18.34,7.03,-5.57,-21.35,-19.81
4.0781,-17.69,-20.70,-10.12,-1.97,9.37,15.59,22.25,20.50,21.96,12.38,1.04,-13.31,-18.89,-23.67
4.0859,-11.17,-7.55,0.60,18.92,20.74,24.15,26.02,21.84,10.97,-0.93,-9.80,-21.05,-28.32,-19.01
4.0938,3.80,15.99,21.01,29.45,24.64,26.90,19.28,12.89,-3.69,-10.49,-25.63,-25.59,-25.45,-18.21
4.1016,19.35,25.89,32.79,29.55,18.88,17.65,6.27,-2.26,-17.65,-23.67,-32.05,-22.62,-21.30,-3.43
4.1094,21.56,24.08,22.25,18.79,7.75,0.67,0.87,-12.16,-26.03,-25.90,-20.82,-17.55,0.78,10.21
4.1172,20.41,17.06,8.40,8.04,1.46,-2.33,-3.52,-7.94,-21.68,-18.84,-9.30,4.21,10.96,17.52
4.1250,18.16,8.56,4.65,2.43,-0.54,2.31,-0.37,-0.66,-10.70,-3.37,6.33,8.37,13.97,22.93
4.1328,20.04,8.75,5.54,0.76,5.12,-0.79,2.86,-0.95,1.29,0.23,10.17,13.33,14.58,9.82
4.1406,17.36,9.59,5.09,-0.86,-0.39,1.79,6.39,-1.32,5.05,2.91,3.99,3.66,5.82,-2.21
4.1484,14.95,5.13,-4.81,-7.88,-2.49,-0.40,0.68,0.04,5.52,4.45,6.74,1.29,-3.76,-11.01
4.1563,0.55,-15.10,-19.78,-13.97,-19.03,-4.73,-1.09,-0.52,5.64,8.79,4.59,3.32,-8.44,-8.31
4.1641,-19.95,-20.66,-24.49,-18.37,1.95,4.48,2.45,17.66,6.93,5.34,1.45,-2.21,-12.73,-17.27
4.1719,-28.33,-21.85,-12.04,-4.59,6.46,7.22,11.48,7.07,14.67,6.64,-6.21,-13.16,-16.84,-20.05
4.1797,-21.74,-9.61,7.55,21.11,16.13,15.97,10.19,4.95,-0.22,-6.60,-12.64,-21.71,-25.72,-21.33
4.1875,-5.83,9.47,22.16,25.64,17.14,11.12,2.83,-4.25,-11.57,-18.20,-29.76,-31.17,-27.14,-22.90
4.1953,9.30,9.54,25.54,25.65,11.49,-6.02,-5.67,-14.51,-22.96,-30.55,-31.12,-28.17,-15.92,-13.44
4.2031,14.71,21.15,24.05,13.90,4.36,-5.11,-13.74,-21.89,-35.19,-28.10,-25.13,-13.41,-4.05,7.97
4.2109,10.67,18.54,12.39,7.43,-3.75,-13.85,-18.11,-24.62,-36.56,-21.40,-10.04,3.98,5.86,10.87
4.2188,17.24,17.81,13.24,10.43,-7.38,-12.86,-15.33,-19.05,-21.95,-11.68,-0.18,9.94,10.45,14.31
4.2266,27.49,20.41,14.63,7.58,2.93,-16.95,-13.88,-11.66,-11.60,-9.02,9.47,11.07,7.97,3.23
4.2344,29.47,27.39,9.91,-6.83,-11.06,-16.85,-17.27,-15.91,-11.46,1.11,8.46,11.24,4.82,-17.89
4.2422,26.26,8.22,-7.49,-23.79,-21.94,-22.73,-22.64,-11.88,-3.06,2.28,12.93,9.95,1.15,-5.18
4.2500,8.36,-10.10,-23.01,-31.68,-28.67,-28.43,-15.60,-4.16,7.82,17.77,18.80,9.97,3.28,-5.23
4.2578,-17.69,-25.69,-32.45,-33.56,-19.33,-13.42,-5.67,1.36,20.36,19.09,16.89,1.34,-7.60,-18.34
4.2656,-24.17,-24.46,-31.24,-20.08,-11.78,-2.24,7.88,12.90,24.18,17.86,9.72,-8.07,-19.56,-28.67
4.2734,-21.25,-14.26,-9.79,-7.61,-3.45,2.02,7.64,13.75,12.18,1.95,-9.81,-25.45,-29.77,-30.87
4.2813,-12.10,-5.65,-2.53,6.35,3.50,3.22,3.91,0.85,3.95,-12.66,-20.92,-30.36,-29.82,-25.36
4.2891,-6.62,-2.16,-3.19,3.15,-3.43,-2.68,-0.90,-4.51,-11.00,-19.58,-32.34,-35.15,-27.50,-15.58
4.2969,-7.07,-7.30,-3.70,-3.78,-2.39,-0.68,-4.07,-7.18,-22.21,-28.65,-30.51,-20.20,-14.00,1.44
4.3047,-12.17,-6.02,-4.32,1.70,-7.37,-5.86,-8.07,-8.84,-22.08,-21.12,-20.64,-12.59,0.12,19.02
4.3125,2.34,5.70,8.00,8.96,1.78,-4.37,-2.70,-7.98,-20.83,-16.41,-8.18,-5.93,7.01,19.92
4.3203,11.08,10.85,9.92,7.55,-2.84,-8.20,-6.96,-7.87,-17.95,-16.71,-9.89,2.31,11.09,20.45
4.3281,16.76,14.02,3.28,-5.67,-6.77,-14.26,-16.45,-19.02,-22.31,-7.91,-2.19,7.76,16.75,21.21
4.3359,14.21,-3.54,-15.38,-23.82,-15.98,-16.30,-14.59,-16.43,-8.36,-2.34,3.11,17.78,24.02,17.19
4.3438,-6.58,-18.22,-33.47,-37.40,-31.12,-20.13,-14.88,-12.18,0.34,10.60,14.80,21.23,26.07,14.08
4.3516,-27.05,-39.91,-31.69,-28.15,-14.17,-7.44,0.10,0.51,14.44,19.37,22.11,18.16,14.74,6.20
4.3594,-32.35,-32.85,-30.30,-15.10,-3.51,4.62,7.55,14.14,23.12,30.36,17.16,13.73,3.44,-2.62
4.3672,-39.96,-18.69,-18.33,-0.20,6.71,10.37,11.36,8.19,14.15,5.49,-0.47,-6.83,-7.77,-16.60
4.3750,-25.28,-17.21,-10.39,6.86,6.03,10.54,7.59,2.12,3.90,-0.49,-6.76,-13.15,-10.47,-16.33
4.3828,-24.34,-19.72,-6.00,3.09,3.87,4.31,-2.26,-4.16,-3.30,-10.88,-15.38,-8.65,-9.41,0.12
4.3906,-22.99,-17.73,-5.57,1.87,4.09,-1.08,-2.26,-6.51,-8.38,-11.57,-10.77,-4.49,-0.23,5.68
4.3984,-22.62,-2.36,10.07,10.52,7.93,2.07,1.69,-2.36,-9.52,-8.20,-2.82,2.57,10.80,12.03
4.4063,-4.29,15.37,20.63,22.29,14.12,6.08,-4.88,-8.92,-15.37,-8.86,-1.09,6.45,13.05,14.28
4.4141,14.83,27.62,28.65,26.59,8.85,-5.31,-8.64,-12.52,-17.84,-8.20,-0.66,10.33,17.98,19.01
4.4219,27.33,28.21,20.27,5.83,-3.51,-10.83,-13.49,-12.43,-13.88,-2.08,7.32,15.46,19.15,25.65
4.4297,17.14,13.70,0.01,-13.35,-17.53,-21.71,-20.54,-15.82,-10.30,10.33,19.96,27.10,32.50,25.36
4.4375,6.31,-3.78,-14.51,-25.09,-17.64,-17.16,-16.40,-5.44,11.90,25.28,37.34,33.54,32.01,18.00
4.4453,-0.24,-11.28,-18.87,-25.49,-16.77,-7.18,1.32,8.28,26.19,37.92,37.95,30.46,21.44,9.80
4.4531,-5.75,-8.83,-2.62,-17.37,-4.72,-2.31,12.32,17.17,22.79,35.28,30.05,20.85,8.18,-5.90
4.4609,-0.48,-12.75,-8.49,-10.62,1.33,3.27,16.01,22.73,27.89,29.18,14.45,2.20,-11.59,-23.04
4.4688,-6.06,-12.52,-10.42,2.18,-4.06,7.98,13.25,13.66,23.40,15.36,3.17,-4.07,-15.27,-23.84
4.4766,-19.56,-21.24,-16.77,-13.03,2.35,4.22,15.45,17.80,20.77,12.98,-3.44,-13.73,-16.29,-10.06
4.4844,-20.46,-22.46,-15.24,0.45,6.52,12.92,19.96,21.14,18.72,8.87,-4.07,-13.51,-13.51,-2.86
4.4922,-14.36,-8.31,1.72,16.53,16.63,24.06,23.16,35.45,12.98,2.16,-10.58,-14.46,-10.53,-0.79
4.5000,-0.23,13.84,22.38,28.98,18.32,21.15,17.45,14.00,3.07,-6.14,-10.92,-14.32,-10.66,0.13
4.5078,16.02,24.85,26.95,31.07,20.70,11.13,7.68,7.04,-14.83,-17.38,-20.20,-7.78,0.08,6.50
4.5156,21.78,24.79,21.33,13.59,10.70,2.47,0.66,-4.07,-19.22,-17.17,-6.29,-1.96,10.67,21.75
4.5234,14.47,14.17,7.45,1.09,-0.07,-0.57,-8.15,-7.48,-7.65,-4.32,1.09,12.45,26.73,28.24
4.5313,5.18,5.56,-3.19,-5.12,-2.61,-2.20,-1.83,4.10,1.11,11.82,19.28,27.11,27.24,23.74
4.5391,2.19,-0.37,-7.58,-7.56,3.67,4.51,6.96,12.91,17.20,19.95,20.24,25.42,21.36,10.77
4.5469,3.84,3.13,1.46,-4.77,8.48,5.90,10.71,16.92,21.68,20.36,20.00,13.37,11.72,-3.00
4.5547,-0.00,-2.11,-2.30,3.05,8.49,12.63,11.54,12.94,17.26,18.09,9.69,7.37,1.08,-10.71
4.5625,-9.27,-7.44,-11.88,-7.76,8.96,10.76,7.76,9.27,14.91,9.65,16.42,-4.78,-9.50,-17.55
4.5703,-23.38,-18.54,-13.54,-7.87,9.34,12.98,12.53,13.74,11.86,10.15,3.11,-2.75,-7.93,-13.07
4.5781,-22.24,-18.78,-7.03,7.29,14.05,20.29,14.28,11.66,14.10,8.35,-2.66,-10.76,-8.89,-12.97
4.5859,-15.02,-2.25,13.04,23.62,28.24,23.73,15.49,9.39,5.66,-1.85,-10.60,-12.98,-17.05,-12.71
4.5938,0.36,19.07,33.69,39.83,25.54,21.01,13.18,4.44,-4.49,-14.23,-20.57,-19.86,-14.50,-9.82
4.6016,21.53,29.74,40.40,37.44,19.44,9.64,2.87,-6.88,-18.81,-25.67,-20.22,-12.52,-8.20,1.26
4.6094,23.61,34.89,32.70,25.34,6.87,-2.52,-14.81,-18.61,-27.60,-20.20,-13.92,-4.85,3.32,8.81
4.6172,21.02,25.97,18.66,12.35,2.06,-8.67,-17.28,-13.56,-22.01,-17.77,-2.02,7.83,19.85,13.99
4.6250,18.12,20.51,16.83,0.23,-1.62,-9.55,-10.21,-7.04,-6.72,6.71,9.62,16.81,17.56,11.18
4.6328,25.18,19.55,12.00,2.23,0.06,-7.86,-9.15,-3.77,-0.16,8.89,18.48,18.59,10.52,2.35
4.6406,29.52,24.28,8.90,-3.21,-6.68,-4.53,-9.41,-2.41,10.02,12.50,19.04,14.78,1.05,-13.81
4.6484,26.16,13.76,-4.57,-13.43,-11.92,-13.55,-4.85,-1.68,11.50,13.40,14.76,5.70,-4.24,-18.22
4.6563,9.47,-6.64,-14.94,-24.91,-17.53,-13.16,-1.21,0.90,17.10,17.29,8.37,1.96,-10.48,-25.74
4.6641,-10.71,-17.25,-23.86,-22.90,-13.87,-4.96,1.87,10.66,21.01,18.60,5.01,-7.23,-20.40,-26.66
4.6719,-15.53,-24.93,-17.42,-10.55,0.84,9.81,8.97,19.15,24.22,-0.21,-4.74,-15.12,-22.22,-25.92
4.6797,-11.29,-11.06,-2.98,7.26,10.37,17.49,18.21,12.58,10.36,0.04,-16.06,-26.62,-32.07,-32.23
4.6875,2.41,4.45,15.70,18.60,14.89,11.26,11.60,8.60,-4.72,-20.23,-29.42,-33.38,-38.71,-23.93
4.6953,11.50,17.14,24.73,20.95,10.26,7.32,2.08,-1.69,-16.37,-26.99,-38.55,-34.46,-24.70,-11.27
4.7031,9.15,8.88,14.31,11.50,-0.87,-4.59,-6.44,-16.46,-30.08,-32.20,-35.05,-26.41,-13.42,2.76
4.7109,6.92,6.98,5.06,-0.50,-0.65,-2.88,-10.45,-10.50,-23.62,-24.71,-20.23,-10.23,6.91,14.71
4.7188,10.59,8.11,4.17,4.49,-1.22,-7.57,-4.05,-10.57,-19.51,-13.69,-7.89,-1.06,6.24,14.15
4.7266,17.97,17.56,6.00,3.35,1.70,-2.15,-6.39,-11.13,-17.29,-14.23,-3.23,1.55,11.74,15.12
4.7344,20.44,12.04,8.13,-6.83,-6.13,-8.98,-10.91,-10.47,-15.98,-8.16,-4.05,6.36,7.39,5.46
4.7422,17.18,6.17,-12.19,-14.83,-14.49,-18.11,-12.09,-11.94,-8.95,-4.71,-1.46,2.52,7.82,5.39
4.7500,-4.18,-21.18,-25.88,-30.75,-14.23,-17.92,-12.82,-8.66,2.58,3.52,11.25,11.21,5.22,-0.60
4.7578,-24.42,-28.12,-31.30,-25.59,-10.52,-4.32,-0.38,1.57,9.39,10.74,7.14,5.04,0.92,-7.41
4.7656,-32.08,-33.06,-28.35,-16.15,-6.26,5.14,4.44,3.50,13.69,7.79,6.97,-1.53,-13.71,-12.00
4.7734,-23.10,-17.57,-11.82,4.25,7.58,7.67,7.24,3.18,6.20,-6.04,-10.17,-14.90,-23.53,-18.17
4.7813,-13.11,-3.41,1.09,11.63,7.10,4.26,4.14,-4.56,-5.33,-13.40,-26.55,-22.73,-23.05,-16.32
4.7891,-12.71,-2.72,9.17,10.35,7.92,1.62,-9.74,-13.43,-17.38,-29.35,-23.06,-26.24,-17.41,-10.41
4.7969,-14.49,-3.17,4.23,4.44,-2.76,-5.27,-13.95,-15.18,-27.75,-25.50,-18.16,-14.73,-2.74,10.89
4.8047,-5.40,-0.08,8.07,4.89,2.24,-7.61,-14.74,-21.33,-25.57,-18.09,-12.25,-2.21,7.35,20.10
4.8125,-1.85,14.89,11.48,10.88,-5.58,-7.19,-11.80,-18.90,-18.00,-16.77,-5.56,6.32,17.75,19.33
4.8203,14.94,22.35,20.18,7.47,-2.75,-15.99,-19.88,-17.61,-19.04,-5.92,4.36,10.63,15.09,16.45
4.8281,23.40,19.43,11.63,0.82,-12.17,-17.99,-22.95,-22.52,-16.70,-2.26,5.44,12.10,13.24,13.68
4.8359,22.91,9.20,-3.90,-20.72,-21.27,-29.29,-27.48,-21.39,-5.97,6.32,15.96,20.06,20.14,13.94
4.8438,5.12,-15.03,-24.45,-35.51,-33.23,-25.05,-22.44,-6.67,-5.22,18.18,24.78,28.88,19.83,13.15
4.8516,-11.65,-22.83,-36.61,-38.74,-27.74,-13.91,-8.67,5.75,23.78,31.94,32.63,18.29,12.29,-0.71
4.8594,-16.57,-24.29,-26.13,-23.36,-14.71,-5.04,7.47,12.02,26.02,27.20,20.10,10.92,-4.26,-15.48
4.8672,-15.40,-19.46,-18.84,-11.52,-4.21,6.09,14.22,19.65,27.91,14.91,9.06,-5.13,-17.10,-27.01
4.8750,-14.22,-13.99,-10.52,-10.16,0.33,3.99,11.61,12.54,10.27,7.12,-10.49,-16.27,-26.26,-20.27
4.8828,-18.51,-18.90,-15.97,-7.83,-3.41,-9.06,7.36,6.92,3.36,-7.51,-16.31,-21.01,-19.38,-12.12
4.8906,-23.71,-16.61,-15.61,-3.21,-0.18,1.91,2.70,7.96,-3.68,-5.32,-10.11,-11.07,-4.85,2.22
4.8984,-21.04,-10.01,-3.11,3.48,7.44,9.14,6.72,3.68,-5.26,-6.94,-25.97,-10.45,2.94,14.92
4.9063,-4.14,7.91,11.71,13.29,12.02,7.63,10.47,3.79,-8.84,-13.76,-13.59,-5.85,4.77,15.82
4.9141,14.28,19.35,17.12,19.86,9.12,3.84,-1.92,-3.71,-11.81,-13.86,-10.18,-3.97,9.42,22.24
4.9219,22.91,18.74,13.47,6.64,0.56,-5.49,-7.98,-6.59,-16.02,-15.04,-1.05,7.97,33.78,28.00
4.9297,9.22,3.84,-8.03,-13.64,-12.72,-9.71,-7.13,-7.07,-6.86,3.64,14.54,20.71,31.42,28.74
4.9375,0.25,-9.46,-17.36,-22.34,-11.26,-10.94,-9.35,-2.08,5.80,14.09,23.72,29.94,34.66,27.19
4.9453,-10.91,-21.55,-23.32,-23.44,-8.20,2.55,5.26,12.86,20.67,27.42,27.49,26.47,26.20,14.41
4.9531,-14.18,-19.56,-15.19,-7.56,0.92,8.98,14.68,14.16,24.16,24.98,27.67,22.31,8.43,1.53
4.9609,-10.65,-17.78,-9.36,0.80,9.44,16.10,14.38,15.08,20.72,21.69,13.69,8.82,-2.17,-9.46
4.9688,-13.02,-18.11,-10.24,-0.81,11.34,10.41,10.48,11.90,18.67,5.82,3.50,-4.82,-6.80,-12.33
4.9766,-21.20,-20.20,-11.43,2.70,10.43,8.94,9.68,9.85,9.79,0.07,0.19,-3.32,-4.18,-6.23
4.9844,-32.56,-17.66,-2.86,11.62,16.28,-1.45,11.66,9.12,8.03,0.23,-3.46,-2.65,-2.19,1.15
4.9922,-18.44,-2.04,11.25,24.11,19.77,20.65,14.54,10.99,-0.42,0.29,-6.61,-0.11,3.49,4.65
5.0000,-2.05,13.88,31.54,39.24,22.69,18.30,12.77,7.93,-3.74,-9.53,-8.10,-3.41,2.92,3.43
5.0078,21.69,29.30,38.62,36.64,20.41,12.51,-0.09,-1.82,-12.52,-12.74,-9.94,3.00,5.81,13.96
5.0156,27.85,34.81,32.46,23.58,6.52,-0.12,-10.92,-14.91,-17.75,-12.00,-4.15,8.86,16.37,15.61
5.0234,20.80,21.81,15.31,5.45,-7.09,-11.44,-15.44,-11.95,-13.31,1.66,16.47,26.80,27.74,27.23
5.0313,13.62,10.94,0.06,-9.75,-7.01,-9.94,-7.55,0.08,2.15,18.94,24.30,34.58,28.69,20.41
5.0391,16.90,7.38,-2.41,-11.31,-9.82,-4.73,-3.18,10.01,21.87,30.84,33.47,31.43,19.78,5.29
5.0469,18.44,4.65,1.00,-3.09,-0.61,-3.17,4.16,17.17,23.01,27.85,24.81,16.64,5.85,-2.38
5.0547,14.67,6.59,-0.01,-7.35,-4.42,5.03,6.76,15.35,24.32,22.05,16.79,6.88,-11.67,-21.33
5.0625,3.69,-5.69,-10.03,-14.11,-3.30,2.98,7.28,14.35,23.11,18.03,6.85,-4.69,-18.03,-23.66
5.0703,-13.26,-20.36,-13.82,-10.59,-3.19,9.74,15.02,18.23,22.17,18.66,7.63,-6.74,-19.14,-25.40
5.0781,-21.70,-14.72,-13.37,-0.15,7.71,11.87,21.49,22.00,22.93,9.20,0.68,-17.52,-22.01,-18.68
5.0859,-13.36,-8.15,8.85,14.14,18.78,19.43,21.32,22.39,6.36,1.91,-16.70,-18.94,-22.92,-23.98
5.0938,4.20,11.39,23.84,33.05,20.99,23.57,19.64,15.81,-3.25,-14.61,-23.55,-31.96,-28.64,-16.64
5.1016,22.90,26.39,32.17,30.05,20.06,12.04,6.13,0.52,-17.19,-22.51,-29.92,-24.35,-16.08,-4.46
5.1094,20.61,21.59,25.44,19.28,11.23,1.56,-4.10,-9.73,-20.15,-24.92,-20.73,-13.18,0.74,12.42
5.1172,18.29,15.38,11.19,4.13,3.44,2.13,-8.09,-9.62,-20.36,-12.85,-9.56,3.62,10.06,16.70
5.1250,13.53,10.61,5.58,0.53,0.05,-1.13,-3.54,-2.31,-7.52,-3.58,2.86,8.07,17.33,18.45
5.1328,18.01,15.75,4.48,-1.62,3.25,2.60,3.81,1.52,-3.90,-0.47,6.67,9.16,9.92,5.69
5.1406,21.66,9.23,7.89,-1.38,0.58,5.17,-1.86,4.06,4.69,8.33,8.54,4.04,2.52,-3.93
5.1484,3.76,4.35,-0.60,-7.92,-0.53,-1.92,-1.10,-2.26,0.13,3.46,3.91,5.76,1.14,-12.13
5.1563,-5.15,-9.92,-18.62,-17.00,-5.48,-2.27,-2.60,0.22,8.40,4.77,3.87,1.39,-3.31,-9.72
5.1641,-17.11,-20.61,-30.47,-18.98,-3.87,1.24,4.86,0.99,9.98,9.87,0.68,-5.94,-6.17,-13.27
5.1719,-27.99,-22.49,-15.80,1.39,9.21,10.26,12.99,7.45,13.80,2.63,-5.70,-14.21,-14.66,-19.30
5.1797,-16.26,-9.51,7.65,24.91,16.70,20.07,16.08,3.46,-0.65,-8.08,-15.90,-20.46,-24.70,-20.96
5.1875,-4.78,5.17,18.68,32.86,18.04,17.89,10.37,-2.50,-10.86,-25.19,-28.78,-31.86,-22.39,-21.69
5.1953,5.45,16.37,25.43,25.04,14.28,0.90,-5.45,-11.42,-27.53,-28.47,-31.40,-25.24,-18.12,-13.73
5.2031,7.41,19.38,22.91,14.49,0.42,-8.38,-14.78,-25.26,-27.98,-26.76,-22.95,-1.10,-1.84,6.51
5.2109,13.13,13.01,16.64,8.46,-17.06,-13.59,-21.49,-21.79,-28.21,-17.47,-9.87,-3.10,10.05,11.61
5.2188,16.11,14.59,13.15,4.15,-5.69,-9.68,-16.51,-15.41,-19.38,-7.06,0.80,8.09,10.81,14.54
5.2266,22.54,21.15,18.82,6.37,-7.43,-16.47,-16.01,-11.47,-11.57,-6.23,6.40,9.28,13.07,9.53
5.2344,34.37,21.92,9.36,-3.98,-14.31,-20.29,-16.17,-16.88,-6.32,0.76,9.91,13.44,10.31,-2.99
5.2422,26.75,8.61,-9.30,-21.86,-20.64,-26.66,-18.50,-13.72,-2.39,5.70,9.82,11.32,6.12,-8.26
5.2500,3.68,-6.90,-22.33,-33.94,-23.38,-28.16,-17.92,-4.55,3.62,10.28,18.71,8.67,3.11,-7.63
5.2578,-17.29,-28.56,-36.59,-38.70,-24.64,-15.75,-9.71,3.75,20.81,23.79,14.84,2.51,-3.57,-15.80
5.2656,-19.76,-23.54,-27.95,-25.31,-13.97,-2.70,7.18,12.28,20.51,14.28,10.07,-5.02,-14.34,-21.30
5.2734,-14.81,-16.12,-13.27,-6.41,-1.61,7.94,7.79,11.02,11.96,1.67,-8.34,-20.84,-28.27,-32.52
5.2813,-12.03,-5.87,-2.99,-0.04,3.31,1.46,8.02,5.82,2.44,-14.95,-25.05,-30.82,-35.61,-29.05
5.2891,-6.54,-5.59,-0.48,3.81,-0.50,0.70,1.83,-7.17,-12.02,-19.28,-26.45,-27.90,-26.70,-9.54
5.2969,-9.26,-4.58,-5.02,-4.15,-2.21,-6.14,-4.15,-6.07,-19.20,-24.34,-22.82,-25.01,-14.73,1.53
5.3047,-13.16,-7.13,-2.24,-0.38,-2.56,-0.68,-5.43,-8.59,-22.27,-25.11,-15.22,-8.01,0.40,13.61
5.3125,-0.31,0.77,1.87,1.65,-4.20,-3.14,-7.20,-8.77,-20.18,-17.63,-10.05,1.37,6.28,19.35
5.3203,12.29,15.24,10.72,3.47,1.75,-3.71,-7.66,-13.27,-19.88,-12.31,-5.46,-1.12,14.11,22.36
5.3281,17.75,14.84,6.07,-6.09,-6.66,-11.46,-16.74,-16.15,-16.27,-11.38,-1.89,6.66,11.35,22.06
5.3359,10.66,2.25,-12.07,-17.30,-18.10,-18.67,-15.24,-12.19,-10.44,-6.16,8.38,12.81,17.06,23.46
5.3438,-11.52,-18.32,-25.96,-30.77,-18.86,-18.24,-15.32,-11.07,1.97,7.32,13.78,24.39,19.60,21.21
5.3516,-22.66,-33.74,-35.87,-34.76,-18.56,-11.71,-3.20,1.64,16.39,21.93,19.28,19.38,14.95,10.40
5.3594,-32.72,-27.45,-29.42,-16.22,-2.74,0.17,3.78,10.49,23.16,15.79,12.02,9.30,-0.34,-4.11
5.3672,-22.06,-24.69,-13.92,-1.69,2.31,8.75,9.37,9.24,16.57,7.70,2.58,-2.64,-10.54,-13.01
5.3750,-21.19,-16.26,-6.38,5.32,9.33,5.85,10.04,4.16,4.21,-4.84,-5.76,-9.22,-16.56,-9.46
5.3828,-26.75,-13.16,-3.61,-0.37,2.34,1.66,-2.24,-2.45,-2.04,-10.43,-15.06,-11.57,-10.29,-5.66
5.3906,-29.46,-16.30,-1.73,1.77,4.21,6.67,-2.66,-4.33,-4.87,-12.32,-8.55,-2.18,1.38,10.85
5.3984,-21.60,-9.20,4.99,14.35,10.98,0.61,-0.25,-3.53,-12.31,-5.83,-8.34,0.32,12.78,17.37
5.4063,-3.26,15.83,20.78,19.58,13.50,5.99,1.28,-5.48,-12.11,-13.19,-4.83,7.16,10.55,16.38
5.4141,13.86,29.59,29.10,26.27,8.85,-2.80,-6.82,-11.69,-15.11,-12.45,-2.18,7.29,15.80,16.16
5.4219,26.30,27.08,16.92,8.44,-8.80,-12.34,-13.76,-12.15,-18.89,-1.55,7.28,13.89,25.08,21.08
5.4297,21.02,14.45,1.67,-12.85,-6.87,-17.66,-19.93,-12.68,-2.95,8.30,22.52,26.10,32.15,27.08
5.4375,3.96,-4.03,-13.57,-24.81,-23.24,-21.17,-16.85,-6.02,7.22,21.21,32.38,32.96,32.00,22.21
5.4453,-0.74,-9.51,-20.12,-28.81,-15.12,-13.55,-3.48,9.33,29.04,39.11,35.62,29.39,23.31,5.35
5.4531,-8.71,-14.85,-17.74,-13.66,-6.53,3.05,9.12,21.03,30.63,35.96,28.09,23.52,1.97,-9.45
5.4609,-2.34,-12.10,-9.59,-10.05,-6.57,4.63,15.00,24.09,27.16,24.48,19.00,7.71,-7.01,-17.82
5.4688,-5.85,-13.69,-13.71,-12.44,-3.20,8.44,10.78,21.22,24.51,18.53,2.45,-8.90,-14.30,-17.96
5.4766,-15.13,-18.75,-16.67,-10.18,-2.63,8.86,10.44,15.41,18.28,11.64,-2.45,-8.26,-16.00,-10.58
5.4844,-21.65,-21.12,-11.46,-1.70,2.75,10.19,19.01,22.35,13.54,7.85,-5.20,-9.69,-13.71,-5.77
5.4922,-14.36,-11.06,1.04,13.09,13.72,17.60,24.37,17.85,12.68,2.42,-5.27,-12.47,-7.90,0.88
5.5000,0.29,14.55,20.85,30.21,17.66,22.74,19.52,9.90,-0.89,-9.57,-16.84,-14.93,-9.99,4.29
5.5078,16.30,25.33,27.64,28.97,14.20,17.89,7.30,6.47,-15.07,-17.30,-14.13,-8.62,-2.93,9.84
5.5156,27.84,24.75,20.79,19.42,4.24,3.50,0.00,-6.19,-19.00,-6.39,-8.33,2.38,14.29,22.03
5.5234,21.43,11.81,4.53,2.20,0.06,-2.85,-0.56,-2.92,-7.88,-7.07,8.43,13.38,27.22,24.76
5.5313,5.05,-0.93,-7.08,-6.68,-4.19,-5.53,-3.94,5.63,0.05,9.15,15.90,28.87,29.84,24.68
5.5391,7.15,-0.04,-8.85,-3.26,5.50,5.86,5.67,10.45,17.13,21.55,21.35,22.36,24.45,11.32
5.5469,5.24,-3.16,-1.70,0.96,6.60,6.86,8.42,11.23,21.89,18.80,20.11,19.65,11.66,-2.77
5.5547,6.45,2.14,-5.97,0.56,8.95,14.00,11.53,15.16,18.87,15.99,7.96,3.16,-2.48,-14.40
5.5625,-2.35,-6.72,-12.46,-1.69,7.66,9.52,12.84,10.06,11.34,11.65,4.53,-1.68,-8.28,-14.55
5.5703,-16.09,-18.46,-11.00,-7.38,9.74,8.65,13.86,6.97,12.40,10.11,-1.37,-7.03,-6.85,-13.67
5.5781,-14.00,-16.66,-7.11,9.29,13.06,20.67,5.26,9.76,12.13,1.09,-2.57,-11.57,-10.22,-8.78
5.5859,-14.48,0.66,16.17,22.79,21.92,26.58,17.00,15.42,7.13,-0.57,-12.46,-17.62,-11.75,-15.95
5.5938,3.14,15.91,36.26,42.24,27.84,22.17,11.61,3.05,-9.97,-11.84,-16.21,-18.53,-17.47,-10.56
5.6016,23.15,36.23,35.79,35.92,21.60,9.60,2.22,-11.53,-20.36,-20.99,-25.76,-16.30,-13.15,1.12
5.6094,25.92,34.48,32.57,25.94,6.48,-3.78,-7.43,-15.88,-27.17,-23.97,-11.72,-4.32,5.54,11.10
5.6172,24.05,23.47,20.49,9.58,-1.61,-10.56,-17.46,-18.18,-21.64,-14.61,0.37,13.78,17.56,20.32
5.6250,24.96,21.77,10.56,-0.58,-6.82,-8.31,-8.85,-12.40,-7.43,5.73,10.05,21.47,18.16,18.76
5.6328,24.23,25.49,10.98,-0.70,-1.70,-6.43,-7.78,-0.71,1.33,9.11,15.76,21.24,15.62,5.87
5.6406,28.96,24.93,10.30,-3.95,-7.37,-7.40,-3.97,2.52,6.39,13.27,19.08,12.26,-1.02,-8.19
5.6484,24.21,9.64,1.06,-14.48,-23.49,-8.76,-5.22,-3.86,10.07,11.18,15.93,2.37,-7.54,-22.29
5.6563,6.23,-5.16,-17.45,-22.15,-17.80,-15.02,-1.66,5.37,16.26,15.54,9.88,-2.74,-10.70,-24.99
5.6641,-9.15,-18.36,-26.35,-20.87,-10.96,-7.54,3.93,11.19,17.55,14.27,8.30,-7.27,-19.97,-27.10
5.6719,-22.08,-23.48,-22.38,-11.08,0.56,9.34,12.60,19.56,21.24,13.22,1.23,-13.33,-27.27,-26.88
5.6797,-14.57,-11.64,-5.42,8.52,11.42,12.50,18.02,14.35,14.15,-2.23,-19.63,-29.20,-30.83,-30.92
5.6875,0.82,6.11,14.65,16.67,9.67,13.14,16.09,8.80,-2.45,-18.84,-27.92,-39.23,-37.25,-28.40
5.6953,8.15,11.91,16.63,22.05,11.46,7.51,2.18,-6.72,-21.55,-27.34,-37.17,-37.95,-26.21,-17.17
5.7031,8.44,15.17,12.70,12.00,-0.01,-3.48,-8.43,-15.01,-26.47,-30.66,-29.83,-20.44,-9.61,6.48
5.7109,6.81,7.11,5.46,5.52,-4.84,-4.75,-8.51,-10.92,-21.17,-26.83,-32.58,-6.39,-0.87,15.32
5.7188,10.39,8.63,8.53,11.96,-2.08,-7.52,-9.91,-14.40,-17.26,-18.79,-12.57,-0.68,11.46,15.34
5.7266,15.34,11.34,13.04,5.26,-3.79,-2.00,-10.07,-12.64,-13.51,-8.84,-0.19,6.30,10.79,14.32
5.7344,24.79,12.59,8.94,-1.81,-7.17,-11.69,-13.12,-9.19,-14.24,-11.14,-0.66,1.92,4.00,7.79
5.7422,13.58,4.70,-6.77,-17.13,-14.08,-13.36,-15.97,-10.83,-9.06,-5.65,4.13,4.68,4.08,1.73
5.7500,-3.12,-17.74,-29.85,-30.58,-14.47,-11.38,-14.40,-10.50,1.25,2.05,4.62,4.80,7.10,-2.46
5.7578,-22.11,-33.53,-33.84,-25.95,-14.64,-8.28,-4.40,-4.33,9.87,11.19,6.06,7.03,3.07,-8.51
5.7656,-30.40,-32.70,-26.61,-15.33,-5.89,4.29,6.82,6.04,10.99,11.14,5.91,-3.03,-13.22,-13.67
5.7734,-21.31,-22.95,-12.06,0.41,10.05,8.46,10.09,4.89,5.19,-3.81,-9.74,-13.36,-21.16,-25.29
5.7813,-16.47,-5.92,4.92,11.17,11.99,3.65,2.76,-5.58,-12.21,-14.46,-23.03,-23.66,-19.84,-20.41
5.7891,-7.55,-2.87,3.89,12.24,1.51,-2.52,-7.16,-14.93,-17.18,-24.43,-27.61,-40.23,-16.95,-5.66
5.7969,-7.47,-1.65,9.05,8.38,1.37,-8.25,-16.17,-22.35,-25.45,-24.33,-23.31,-10.42,-2.48,5.18
5.8047,-9.52,0.18,8.35,11.42,-4.41,-12.23,-14.65,-17.94,-23.24,-16.74,-13.98,0.65,6.77,13.24
5.8125,6.70,10.97,15.97,8.94,0.37,-11.92,-14.18,-18.22,-23.94,-13.08,-5.69,10.89,11.14,14.92
5.8203,21.37,24.41,18.39,13.19,-7.52,-12.08,-20.19,-14.17,-19.19,-10.18,-1.25,14.17,5.63,16.74
5.8281,29.52,24.70,15.79,-5.62,-14.58,-18.52,-21.42,-16.72,-19.25,-5.45,9.25,16.81,14.82,10.89
5.8359,21.77,8.82,-7.25,-22.44,-23.09,-31.28,-28.08,-16.66,-11.84,8.03,12.49,17.93,15.22,11.04
5.8438,0.85,-8.24,-24.96,-40.25,-26.12,-28.49,-23.71,-6.97,5.46,20.64,26.06,26.76,20.08,12.49
5.8516,-17.66,-26.67,-32.74,-41.28,-21.91,-20.90,-3.17,2.03,21.34,27.89,28.86,21.14,12.93,-2.42
5.8594,-18.15,-24.59,-29.02,-25.31,-10.84,-1.54,1.64,11.19,27.41,31.83,25.01,5.26,-2.22,-16.76
5.8672,-16.44,-17.05,-21.67,-14.61,-4.58,6.19,10.15,16.32,24.62,18.64,3.90,-5.35,-21.90,-21.70
5.8750,-12.19,-12.54,-9.17,-7.71,-1.13,6.42,5.36,14.57,4.38,0.10,-8.98,-21.28,-20.34,-19.76
5.8828,-21.11,-18.44,-16.50,-5.30,-5.80,3.47,5.59,9.77,3.95,-4.46,-12.97,-16.41,-21.62,-8.89
5.8906,-22.50,-19.31,-8.85,-4.81,2.55,0.24,2.35,3.85,1.95,-7.87,-9.98,-17.21,-5.61,0.11
5.8984,-16.30,-9.36,-0.91,5.37,1.95,11.39,5.00,8.02,-5.65,-12.35,-7.60,-12.42,-0.68,15.26
5.9063,-5.51,1.83,12.55,11.84,7.49,7.89,9.61,1.75,-11.60,-8.61,-14.37,-7.76,1.89,20.19
5.9141,15.00,15.23,18.68,16.57,3.53,6.62,-0.63,-4.13,-11.57,-18.00,-11.26,2.25,13.41,21.99
5.9219,19.91,13.73,12.02,2.59,-1.65,-6.93,-8.65,-9.51,-15.20,-9.20,0.82,10.23,22.77,28.93
5.9297,13.69,7.04,-7.24,-10.26,-8.52,-9.48,-11.98,-6.78,-12.26,-0.84,10.83,19.72,25.39,32.13
5.9375,-3.61,-15.18,-16.97,-25.26,-15.42,-5.95,-1.98,1.54,2.03,18.50,21.12,29.69,28.29,32.25
5.9453,-14.19,-22.48,-24.89,-23.70,-9.07,-0.89,8.13,11.49,22.47,22.55,28.81,32.24,23.61,18.50
5.9531,-12.07,-16.23,-20.42,-7.50,2.42,11.93,12.89,12.48,25.72,24.42,23.74,17.02,12.48,1.52
5.9609,-9.44,-15.91,-6.83,-1.25,8.80,10.92,15.29,19.03,18.59,17.22,10.22,2.52,1.20,-13.59
5.9688,-19.97,-13.89,-7.24,-2.06,9.47,11.03,12.73,9.30,12.34,7.02,5.16,-0.62,-9.80,-6.88
5.9766,-23.23,-17.81,-11.41,-3.17,12.62,7.84,14.53,5.15,6.00,0.49,-0.97,-6.36,-3.07,-4.47
5.9844,-31.06,-15.48,-3.38,10.33,15.50,14.49,16.08,5.76,5.96,-1.78,-0.11,-0.39,-1.08,-2.31
5.9922,-23.60,-0.12,11.31,24.00,22.20,16.27,17.33,5.71,-1.08,-14.99,-1.43,-3.95,-0.96,2.87
6.0000,-3.08,20.57,34.25,38.03,25.47,19.47,9.44,4.50,-4.56,-5.69,-9.20,-1.59,2.96,7.33
6.0078,21.25,29.64,39.72,33.65,16.75,5.29,0.19,-6.02,-15.21,-10.86,-4.39,-3.52,0.34,10.21
6.0156,30.65,35.72,29.51,17.90,4.01,-3.90,-9.47,-16.45,-14.39,-9.23,-0.98,9.60,13.81,17.50
6.0234,20.85,23.39,11.97,6.24,-4.63,-15.38,-16.86,-12.24,-7.61,5.51,16.50,22.78,29.05,25.21
6.0313,17.22,9.95,5.99,-9.53,-7.47,-8.09,-6.82,-1.45,4.10,17.88,44.88,31.24,28.47,17.65
6.0391,13.98,6.39,-4.04,-6.70,-4.02,-8.60,-3.60,11.42,15.53,28.06,32.69,28.91,23.17,4.65
6.0469,14.08,18.17,-0.96,-7.81,0.27,-3.61,3.47,11.71,21.73,34.09,25.44,16.47,1.02,-11.98
6.0547,11.95,9.23,-2.18,-3.10,-0.52,2.52,11.11,16.00,25.12,28.62,14.17,8.28,-17.22,-23.61
6.0625,3.00,-4.65,-9.72,-16.24,-4.22,3.70,7.55,17.41,23.49,19.80,7.98,-1.63,-19.87,-27.41
6.0703,-11.34,-20.12,-14.79,-29.43,-3.40,5.50,14.26,13.80,27.51,13.90,2.98,-9.92,-18.21,-19.48
6.0781,-21.51,-21.18,-14.77,-5.02,9.08,16.60,23.23,20.90,25.13,9.41,-5.70,-17.99,-17.61,-18.37
6.0859,-11.77,-7.78,7.98,18.41,13.91,19.64,24.41,22.79,13.17,-0.39,-15.32,-25.43,-21.27,-16.92
6.0938,4.23,12.10,21.77,30.80,24.36,23.73,23.16,9.91,1.32,-10.04,-25.72,-30.17,-21.33,-16.08
6.1016,22.80,24.60,28.88,28.35,28.31,14.69,5.98,2.11,-17.18,-22.21,-29.47,-26.78,-17.19,-7.49
6.1094,19.68,28.37,25.46,14.42,9.06,2.86,0.35,-11.03,-20.81,-26.14,-22.04,-15.35,-3.04,12.86
6.1172,17.33,17.28,13.39,1.64,4.57,-1.84,-8.52,-7.56,-17.69,-17.31,-9.86,-2.05,13.47,18.03
6.1250,11.36,13.34,8.10,-0.93,0.37,-0.99,-5.33,-4.69,-8.88,-1.88,3.19,13.81,21.11,17.44
6.1328,19.31,14.91,5.80,0.00,0.17,1.08,2.81,0.09,-1.36,3.32,6.67,15.39,15.95,10.98
6.1406,18.29,9.58,5.83,-0.40,-1.02,1.44,-1.70,-3.05,1.69,3.23,-2.17,10.25,4.42,-0.99
6.1484,13.67,5.49,-2.69,-5.69,-2.69,-0.50,-1.74,-2.74,4.01,2.09,4.04,3.93,-1.35,-23.32
6.1563,2.48,-14.64,-19.32,-16.00,-7.77,-2.61,0.71,0.05,2.41,5.73,1.04,0.44,-5.62,-10.57
6.1641,-18.15,-20.68,-21.62,-12.13,-2.21,3.61,6.15,4.27,12.03,7.34,0.75,-0.40,-11.93,-11.15
6.1719,-28.68,-26.69,-14.76,0.09,11.52,12.66,7.40,11.74,8.90,6.96,-10.05,-10.13,-17.05,-23.50
6.1797,-17.53,-9.63,7.57,16.44,14.76,14.82,13.10,7.91,3.53,-10.46,-11.63,-20.96,-20.45,-20.80
6.1875,-4.35,7.07,24.39,25.74,16.85,11.17,5.70,0.37,-11.41,-20.56,-27.30,-31.30,-22.35,-17.89
6.1953,5.88,16.90,27.22,30.49,17.75,8.77,-6.55,-25.19,-30.03,-31.36,-27.19,-25.95,-20.73,-12.27
6.2031,12.26,15.05,21.03,14.17,3.22,-6.36,-12.71,-20.28,-33.93,-31.67,-26.25,-15.94,-14.81,6.44
6.2109,8.92,15.79,13.66,12.45,0.08,-11.77,-17.65,-18.98,-29.52,-20.72,-6.85,-0.85,8.98,12.22
6.2188,15.11,15.78,19.15,7.32,-5.51,-15.41,-13.89,-18.39,-16.82,-13.94,-0.19,11.81,17.12,17.99
6.2266,25.88,28.16,18.99,6.99,-3.54,-12.03,-14.47,-18.15,-11.80,-0.03,5.29,11.07,11.50,8.10
6.2344,31.55,20.84,11.44,-3.61,-15.69,-21.84,-19.10,-15.63,-12.46,3.94,10.66,13.27,7.70,0.90
6.2422,26.36,11.27,-9.05,-23.46,-18.35,-25.10,-19.31,-17.49,-5.30,4.58,11.97,5.98,1.83,-9.24
6.2500,5.14,-13.77,-27.63,-34.29,-23.05,-26.37,-18.68,-5.95,7.27,16.36,17.08,12.78,-0.87,-11.72
6.2578,-15.25,-23.28,-34.10,-36.77,-23.65,-14.91,-10.35,2.88,17.22,17.47,13.90,4.82,-5.74,-15.58
6.2656,-25.82,-26.64,-29.54,-22.34,-14.10,-3.00,6.22,11.29,25.56,20.98,3.93,-4.60,-19.38,-22.47
6.2734,-21.39,-21.24,-14.76,-8.25,-0.39,7.64,7.06,1.79,15.90,0.92,-11.95,-22.14,-32.82,-32.31
6.2813,-4.68,-5.91,-0.20,7.07,-0.67,7.53,4.66,6.58,3.60,-9.28,-25.82,-31.89,-32.04,-24.69
6.2891,-3.44,-8.30,1.83,5.22,0.75,-2.90,-3.14,-5.89,-9.15,-21.29,-33.15,-29.51,-26.34,-9.42
6.2969,-12.13,-9.30,-1.32,2.39,-4.81,-6.10,-1.57,-8.39,-21.53,-26.47,-23.33,-19.41,-13.96,4.56
6.3047,-6.25,-7.29,-3.44,-0.70,-6.93,10.02,-7.43,-11.20,-22.43,-23.39,-26.77,-9.62,0.27,12.28
6.3125,0.03,5.08,5.07,3.20,-2.18,-3.74,-2.55,-7.36,-16.55,-15.96,-9.79,-2.87,8.01,19.67
6.3203,10.17,9.82,13.40,9.06,-2.61,-4.22,-5.01,-9.68,-21.82,-14.27,-4.52,2.55,14.45,20.64
6.3281,17.22,9.85,7.95,-5.27,-12.49,-9.34,-15.91,-14.09,-17.80,-15.63,-4.77,5.79,18.68,19.48
6.3359,14.23,2.23,-8.32,-22.27,-18.09,-16.00,-20.26,-16.91,-10.90,-6.72,4.71,18.53,20.70,23.71
6.3438,-12.17,-22.28,-26.58,-29.80,-18.75,-16.00,-15.69,-7.19,3.75,9.84,19.18,18.79,21.28,17.92
6.3516,-27.91,-24.35,-34.97,-28.99,-17.44,-6.80,-1.80,-0.73,17.96,19.15,19.09,21.06,17.43,10.50
6.3594,-26.76,-35.22,-28.21,-14.56,-4.18,5.64,6.83,6.82,16.03,17.51,16.46,10.51,1.79,-2.59
6.3672,-22.19,-24.50,-12.88,-3.95,5.37,5.10,8.34,12.11,13.55,6.62,4.31,-2.92,-9.11,-15.97
6.3750,-18.45,-14.59,-7.72,1.88,2.79,11.05,3.31,1.80,0.82,-6.38,-6.95,-14.87,-15.07,-10.77
6.3828,-26.42,-17.53,-6.95,1.94,2.91,1.61,-0.98,-5.54,-5.75,-7.98,-16.51,-13.05,-10.36,-18.94
6.3906,-24.53,-12.47,-1.18,4.58,1.01,0.66,0.11,-4.18,-12.59,-11.59,-13.27,-3.63,5.21,8.71
6.3984,-22.93,-3.47,8.12,17.33,4.11,4.33,2.52,-4.05,-8.61,-13.31,-1.48,-0.16,9.61,16.11
6.4063,0.71,14.45,21.87,26.07,12.93,1.90,0.92,-2.92,-12.34,-6.41,-0.58,5.44,10.78,21.12
6.4141,19.65,25.00,30.16,21.48,7.33,-4.24,-8.75,-10.81,-14.44,-11.02,2.15,7.96,13.44,21.24
6.4219,23.05,30.75,21.18,6.29,-7.91,-9.90,-19.56,-18.10,-14.60,-4.45,0.24,14.64,24.66,21.52
6.4297,17.81,10.68,2.04,-8.05,-19.35,-22.48,-22.75,-16.92,-10.22,8.20,20.63,25.10,32.67,28.59
6.4375,6.52,-4.13,-12.58,-26.75,-21.18,-23.63,-13.43,-1.55,10.28,28.08,37.10,39.12,30.08,22.29
6.4453,-0.41,-12.67,-21.91,-26.67,-12.13,-8.29,2.44,8.43,26.23,37.83,35.67,33.41,18.37,4.76
6.4531,-7.32,-11.16,-12.61,-16.67,-7.57,-2.19,12.39,20.63,30.49,32.09,34.37,17.68,6.16,-5.46
6.4609,-0.73,-10.61,-10.16,-8.92,-0.55,3.05,15.37,22.66,27.70,25.27,18.78,-0.04,-7.30,-21.42
6.4688,-11.96,-10.14,-16.65,-6.95,-4.46,5.63,15.24,21.29,22.31,16.24,8.24,-10.97,-17.50,-17.75
6.4766,-17.40,-15.62,-13.55,-12.60,1.86,4.78,15.90,16.91,17.28,8.92,-0.17,-11.44,-17.68,-13.10
6.4844,-24.62,-21.70,-9.76,1.68,4.52,9.98,14.25,16.86,18.28,6.93,-5.33,-7.43,-13.71,-6.22
6.4922,-15.16,-8.00,-0.26,12.23,13.49,16.80,21.41,15.56,7.72,0.44,-8.46,-13.68,-5.71,-0.30
6.5000,-0.66,11.42,17.84,26.67,20.45,21.03,22.09,15.58,4.02,-12.96,-11.57,-11.61,-3.72,1.84
6.5078,34.04,23.95,28.02,26.71,16.18,15.48,13.45,1.25,-14.53,-18.01,-15.49,-7.56,0.30,6.99
6.5156,27.34,21.05,23.50,16.57,4.82,5.15,3.04,-2.07,-16.81,-16.05,-8.58,3.68,11.20,19.09
6.5234,19.94,17.25,7.47,1.95,0.83,-4.12,-3.73,-3.41,-10.54,-5.29,4.32,12.55,26.17,30.44
6.5313,8.35,3.08,-5.25,-7.08,-3.04,0.54,1.95,-0.66,4.81,7.91,17.11,27.25,25.35,26.79
6.5391,7.84,-2.46,-2.31,-7.12,5.37,4.79,10.32,6.71,12.06,21.83,22.32,21.58,21.22,17.93
6.5469,5.81,-0.52,1.51,2.72,5.78,12.78,13.89,11.83,17.06,20.70,18.78,16.32,12.52,-4.47
6.5547,5.86,0.48,-5.81,3.15,5.81,13.51,15.06,12.85,14.98,13.37,10.66,3.47,-2.25,-12.95
6.5625,-2.12,-7.53,-5.78,-5.27,2.78,8.46,10.60,7.18,17.76,9.47,7.91,-4.96,-4.29,-12.61
6.5703,-16.77,-19.69,-15.06,-5.99,7.00,10.28,10.72,8.67,10.33,6.55,5.99,-0.89,-12.86,-15.34
6.5781,-25.96,-17.16,-1.52,9.61,14.09,22.04,15.05,14.98,14.35,7.91,1.25,-8.63,-14.02,-15.75
6.5859,-18.06,-1.94,17.43,27.15,23.10,27.46,20.52,9.15,8.51,-4.45,-7.03,-13.29,-12.20,-10.71
6.5938,6.30,17.85,36.05,36.11,28.57,23.97,10.95,3.99,-9.62,-17.97,-18.73,-15.35,-16.43,-7.77
6.6016,24.09,33.23,41.74,42.21,21.99,8.15,-0.76,-8.81,-21.19,-26.55,-21.80,-20.14,-12.22,-6.34
6.6094,26.76,32.05,34.52,24.86,7.47,5.33,-15.03,-20.90,-23.98,-20.46,-17.01,-6.88,5.94,10.52
6.6172,20.59,27.83,20.95,14.10,3.64,-6.98,-19.21,-15.84,-19.95,-12.77,1.80,11.56,14.01,20.04
6.6250,22.62,19.38,12.42,5.45,-3.63,-9.13,-15.75,-8.18,-5.66,5.18,13.35,18.62,18.78,11.10
6.6328,26.55,22.40,13.97,2.05,-3.53,-11.80,-8.64,-5.53,-0.60,15.61,20.97,22.29,14.90,-0.84
6.6406,29.13,23.20,13.48,-0.16,-5.50,-4.20,-4.71,3.09,7.43,11.75,13.19,14.73,4.65,-8.17
6.6484,25.75,10.06,-0.24,-11.16,-8.09,-13.22,-3.47,1.32,8.77,13.65,12.08,1.48,-6.16,-17.69
6.6563,6.15,-8.05,-13.87,-18.90,-11.36,-12.54,-3.29,-5.58,17.17,11.56,8.03,7.72,-15.55,-21.10
6.6641,-11.74,-16.03,-27.66,-20.66,-12.70,-2.63,0.34,9.69,20.16,15.66,5.32,-6.14,-16.59,-22.01
6.6719,-21.40,-17.42,-19.11,-14.06,-4.01,2.45,14.31,13.66,17.42,10.84,-4.99,-19.24,-26.57,-30.01
6.6797,-10.63,-12.15,-4.84,5.31,10.11,16.25,13.44,16.45,16.63,0.44,-16.51,-31.41,-21.81,-32.03
6.6875,-3.17,9.08,11.04,18.35,14.11,18.13,10.96,5.47,-0.34,-16.14,-31.15,-36.98,-36.54,-25.47
6.6953,9.18,16.24,18.57,22.36,7.36,10.25,-0.58,-2.36,-21.52,-30.30,-25.72,-37.54,-24.48,-17.42
6.7031,8.56,10.03,12.51,11.11,1.76,-2.32,-7.92,-10.43,-24.05,-31.72,-34.75,-27.95,-13.13,4.31
6.7109,5.75,6.56,7.21,2.43,-4.72,-2.08,-6.51,-12.61,-26.06,-20.27,-20.33,-9.35,4.98,14.98
6.7188,12.99,6.60,4.13,5.28,-4.65,-3.44,-10.35,-7.44,-17.75,-15.90,-7.96,2.43,13.38,16.73
6.7266,19.99,15.01,11.72,1.03,-0.75,-5.37,-4.42,-11.10,-12.09,-9.10,-3.65,7.40,11.54,14.30
6.7344,21.76,16.27,5.67,-6.41,-3.25,-12.63,-7.75,-15.35,-12.34,-6.28,9.12,6.05,9.94,5.42
6.7422,11.98,4.22,-8.48,-16.88,-10.69,-17.05,-6.69,-15.30,-7.36,-0.67,-0.11,4.67,7.77,0.40
6.7500,-1.91,-17.35,-26.62,-25.95,-20.00,-12.00,-15.70,-6.44,-2.80,5.31,3.82,10.83,1.98,-0.82
6.7578,-25.51,-31.86,-31.86,-27.81,-13.27,-8.68,-3.83,2.70,12.61,11.13,8.04,3.98,-2.41,-5.99
6.7656,-28.45,-32.98,-25.91,-16.21,0.46,3.51,5.03,5.27,10.93,12.03,1.77,-0.38,-7.69,-12.30
6.7734,-25.04,-22.59,-9.72,4.85,6.79,12.66,11.10,8.15,4.15,-3.71,-6.31,-12.47,-20.63,-24.81
6.7813,-12.17,-8.23,7.38,10.51,9.20,3.64,0.23,-8.40,-5.50,-16.82,-23.57,-28.78,-25.13,-21.23
6.7891,-11.37,-0.57,5.68,12.37,1.30,0.70,-10.43,-15.79,-17.72,-23.80,-28.20,-22.33,-13.57,-11.01
6.7969,-8.70,-2.16,2.63,4.93,0.49,-2.69,-17.16,-17.22,-24.18,-25.59,-17.65,-12.53,-0.32,4.50
6.8047,-10.21,1.08,6.13,4.48,-1.16,-5.70,-13.09,-18.73,-20.51,-22.70,-9.29,-2.57,9.20,20.66
6.8125,7.09,16.09,14.65,11.16,0.18,-10.65,-13.07,-19.69,-21.75,-10.83,-4.85,10.44,15.22,20.23
6.8203,18.18,17.34,21.27,21.98,-4.52,-11.54,-17.38,-18.22,-17.83,-12.30,-0.83,12.28,12.10,18.46
6.8281,25.95,22.98,11.83,-2.26,-12.55,-17.33,-22.11,-21.39,-15.12,-0.17,4.15,18.36,17.60,13.94
6.8359,20.02,11.13,-8.97,-25.97,-26.93,-26.74,-27.37,-18.81,-7.21,7.29,17.83,18.83,19.43,11.62
6.8438,1.87,-12.24,-23.40,-40.76,-27.24,-30.07,-21.11,-10.60,5.35,16.93,23.86,28.09,17.58,7.46
6.8516,-11.87,-24.60,-36.32,-38.29,-24.52,-21.37,-8.63,5.22,22.34,27.66,27.73,18.80,18.49,-4.85
6.8594,-16.84,-22.44,-28.84,-27.89,-10.61,-9.18,7.50,15.21,25.39,28.76,22.49,8.94,-1.15,-16.06
6.8672,-15.65,-19.78,-21.02,4.15,-2.27,6.02,13.28,17.46,23.72,20.79,8.13,-5.01,-17.21,-14.77
6.8750,-13.25,-16.57,-10.50,-6.50,-5.96,7.29,6.75,12.80,12.64,7.14,-6.21,-16.55,-25.24,-23.54
6.8828,-15.09,-13.87,-9.54,-4.94,-0.94,-0.55,6.97,9.62,2.10,-3.85,-10.67,-16.61,-16.88,-10.38
6.8906,-26.28,-19.30,-10.77,-8.58,-2.73,5.80,4.08,7.65,-0.20,-7.12,-17.81,-12.46,-7.82,5.87
6.8984,-15.40,-14.91,-11.72,4.07,2.68,5.61,7.42,5.57,-7.03,-5.52,-15.27,-4.57,1.53,15.32
6.9063,-7.12,3.32,12.75,13.08,7.81,8.85,3.87,4.91,-10.63,-9.10,-8.52,-7.00,9.23,19.85
6.9141,14.75,18.70,19.08,18.12,8.11,1.08,4.48,-5.12,-11.39,-16.10,-7.36,1.03,13.54,17.83
6.9219,16.38,14.21,10.22,8.03,0.37,-3.49,-8.31,-9.46,-12.38,-12.62,-0.49,10.89,21.97,23.79
6.9297,13.57,5.97,-2.18,-10.99,-10.93,-14.81,-11.82,-12.82,-7.87,-1.66,13.93,22.78,32.45,28.51
6.9375,-2.73,-14.44,-20.71,-26.24,-10.05,-10.52,-2.47,2.27,8.62,14.74,20.32,28.93,33.77,28.32
6.9453,-13.82,-20.81,-28.38,-21.08,-6.51,2.14,7.23,13.96,21.72,25.11,32.21,31.51,21.24,15.10
6.9531,-12.19,-17.86,-15.23,-11.98,5.09,10.99,12.71,13.27,21.67,24.68,26.75,16.01,11.24,2.75
6.9609,-12.77,-12.21,-10.78,-4.48,11.10,15.64,11.18,13.71,23.11,15.95,9.96,2.27,0.94,-8.56
6.9688,-15.05,-17.10,-12.76,0.41,9.49,12.97,10.47,9.70,13.78,6.75,5.24,-1.60,-9.17,-12.60
6.9766,-25.24,-18.71,-13.70,3.79,6.15,13.92,12.56,11.00,13.71,5.01,-1.28,-3.70,-9.32,-8.19
6.9844,-32.60,-20.90,-4.91,12.11,10.26,13.03,16.07,11.16,6.10,-0.49,-1.35,-3.52,-0.67,2.61
6.9922,-18.65,-4.19,13.06,20.23,23.92,19.21,12.87,9.69,2.80,-4.83,-7.42,-2.33,-1.96,1.98
7.0000,-1.32,20.30,29.60,35.74,24.42,15.09,12.54,2.47,-3.61,-6.00,-3.96,-6.51,-2.32,7.79
7.0078,18.32,29.78,35.30,39.43,18.77,5.76,2.64,-4.93,-17.72,-16.98,-4.33,-4.16,4.85,10.86
7.0156,28.41,37.88,34.71,21.92,8.89,-2.31,-9.93,-12.00,-17.02,-10.71,3.52,13.09,18.38,22.70
7.0234,22.61,24.71,15.38,3.33,-6.97,-15.26,-12.15,-8.89,-7.48,2.69,14.26,21.10,25.42,24.69
7.0313,14.08,8.15,4.13,-6.89,-11.42,-7.43,-7.76,-0.76,4.71,16.75,31.10,35.68,28.56,23.37
7.0391,16.82,5.37,0.20,-6.08,-6.64,-2.08,0.88,12.12,18.17,29.68,29.69,27.33,20.32,10.00
7.0469,16.37,9.00,-1.73,-3.55,-6.08,-0.11,10.18,14.77,28.37,26.65,24.65,15.84,2.31,-12.02
7.0547,16.93,6.08,-6.04,-7.12,-4.08,-1.88,8.62,14.46,23.18,27.51,17.51,6.26,-10.08,-23.79
7.0625,7.10,-8.65,-11.71,-9.16,-0.26,0.80,5.85,13.14,26.53,23.39,11.59,-2.45,-19.31,-22.49
7.0703,-12.22,-18.48,-15.50,-16.73,1.60,9.82,10.48,20.29,26.50,14.45,3.49,-8.61,-16.04,-20.68
7.0781,-19.36,-15.95,-15.65,-5.78,11.25,17.45,22.98,24.07,25.88,7.22,0.32,-11.49,-22.32,-22.53
7.0859,-16.16,-6.10,7.82,15.88,15.77,22.34,21.87,19.14,13.48,-1.65,-13.62,-24.35,-27.20,-21.74
7.0938,8.32,15.30,19.36,33.09,23.08,25.16,20.52,11.52,-4.17,-13.33,-20.77,-25.12,-26.52,-15.37
7.1016,18.95,28.62,29.55,29.86,18.25,11.96,7.84,1.76,-14.71,-27.03,-31.79,-24.71,-15.04,-8.92
7.1094,19.37,21.56,21.47,17.54,9.95,4.55,-5.02,-4.71,-19.33,-25.03,-20.93,-12.35,-0.38,8.08
7.1172,20.35,15.59,14.18,3.09,5.12,-5.65,-7.34,-8.73,-22.55,-12.55,-5.75,4.67,11.24,20.19
7.1250,4.71,10.20,7.46,4.35,3.14,-2.87,-5.64,-1.73,-12.94,-4.81,2.97,14.16,21.49,16.36
7.1328,19.95,13.40,7.06,-1.36,-0.69,4.41,2.61,1.77,-4.12,4.69,10.18,11.71,12.31,5.82
7.1406,20.56,16.25,8.82,2.22,6.09,1.02,-0.11,3.80,5.02,1.08,8.49,9.98,3.91,-5.39
7.1484,18.53,1.73,-4.27,-3.39,-1.19,-4.99,-3.66,-4.20,6.26,7.02,0.94,-0.88,-4.46,-11.91
7.1563,-0.14,-10.88,-13.01,-15.02,-6.83,-4.50,-3.80,-0.53,6.60,7.60,7.44,2.89,-4.02,-11.47
7.1641,-20.64,-25.57,-18.40,-17.90,-3.52,0.16,7.45,7.24,7.39,5.84,0.65,0.27,-10.76,-15.31
7.1719,-30.62,-20.11,-13.89,-1.21,3.89,8.40,13.76,7.79,13.45,5.10,-4.82,-7.35,-16.67,-17.45
7.1797,-17.41,-5.62,7.69,18.74,16.90,21.16,11.81,4.83,0.15,-6.69,-16.37,-20.50,-20.20,-26.28
7.1875,-4.76,10.40,22.11,30.70,22.98,11.91,5.10,-4.42,-15.80,-25.41,-28.44,-25.88,-30.20,-19.51
7.1953,5.31,16.73,28.26,28.60,11.03,1.16,-7.82,-11.83,-26.21,-27.33,-34.27,-25.61,-17.92,-12.62
7.2031,10.85,22.02,17.99,15.02,6.50,-7.45,-18.55,-19.95,-29.26,-33.10,-21.70,-11.78,-1.76,1.51
7.2109,8.31,14.19,16.82,10.48,1.51,-9.98,-15.94,-22.00,-28.71,-19.97,-13.28,-3.63,7.65,11.95
7.2188,18.71,15.12,15.99,5.22,-4.73,-10.34,-19.69,-18.79,-36.37,-10.62,-0.89,8.76,10.96,13.86
7.2266,24.03,21.87,20.47,3.20,-6.54,-14.56,-17.52,-17.40,-17.89,-0.05,5.94,13.38,13.71,5.94
7.2344,30.64,21.56,14.42,0.27,-13.78,-21.67,-19.39,-13.79,-5.89,2.34,6.79,7.30,8.73,-3.33
7.2422,26.87,0.35,-8.12,-20.93,-23.98,-25.18,-20.10,-13.19,-0.98,5.46,10.11,7.29,4.61,-7.64
7.2500,5.98,-11.13,-27.87,-37.36,-24.85,-25.74,-17.49,-4.32,7.70,12.68,17.46,10.79,2.18,-12.69
7.2578,-15.92,-29.71,-31.22,-44.46,-20.41,-16.34,-7.00,1.30,14.90,18.90,13.80,1.83,-6.35,-18.96
7.2656,-23.66,-28.05,-30.31,-23.99,-15.75,-5.44,3.54,16.13,23.78,20.85,6.71,-4.76,-16.30,-27.52
7.2734,-16.76,-20.61,-15.60,-7.74,-3.89,4.68,12.51,12.98,13.97,4.10,-10.44,-23.23,-33.62,-30.20
7.2813,-11.28,-4.26,0.09,5.24,1.84,2.55,8.00,5.17,-7.93,-10.92,-21.34,-31.44,-33.95,-25.11
7.2891,-6.67,-1.35,-0.16,0.42,1.00,-3.69,-1.16,-1.84,-11.87,-26.31,-28.57,-32.76,-22.21,-16.84
7.2969,-6.28,-3.72,-4.31,0.17,-2.56,-1.89,-4.47,-4.81,-15.85,-21.09,-23.78,-19.32,-11.30,2.87
7.3047,-13.18,-5.04,-2.06,2.09,-3.96,0.08,-2.93,-5.21,-19.87,-21.03,-18.88,-11.36,-1.48,18.67
7.3125,3.31,1.53,7.79,8.23,0.04,1.19,-8.26,-9.16,-16.90,-13.58,-11.27,-5.90,9.52,22.01
7.3203,12.03,12.58,9.74,9.14,-5.60,-6.74,-6.71,-12.39,-21.87,-15.17,-9.54,5.02,11.93,22.67
7.3281,17.69,9.30,3.76,-1.86,-8.66,-12.95,-14.74,-16.22,-17.81,-9.21,-1.83,4.15,16.02,15.46
7.3359,13.68,-2.59,-13.24,-23.42,-20.87,-20.89,-14.21,-17.92,-9.63,0.93,4.40,12.38,16.52,18.63
7.3438,-10.00,-18.15,-31.76,-31.67,-23.76,-14.16,-15.06,-6.69,1.22,6.91,20.89,24.47,23.09,14.45
7.3516,-28.06,-35.66,-32.29,-35.51,-15.97,-10.13,-4.10,3.66,13.98,21.54,22.61,23.77,12.59,7.60
7.3594,-28.97,-30.53,-25.04,-18.70,-7.31,1.66,4.88,13.05,21.42,20.83,14.22,9.14,1.42,-1.50
7.3672,-23.05,-23.39,-10.67,-6.34,3.55,4.91,9.74,10.11,12.41,7.13,-0.56,-3.25,-10.03,-13.27
7.3750,-18.33,-14.83,-4.16,5.36,5.37,9.53,2.77,-0.16,3.38,-6.21,-10.02,-13.70,-13.65,-13.86
7.3828,-25.32,-15.23,-1.99,0.71,7.31,5.92,1.01,-1.62,-8.61,-13.44,-9.51,-14.78,-5.52,-1.27
7.3906,-28.69,-14.09,-1.25,5.17,3.22,1.61,-1.71,-5.47,-6.58,-14.72,-8.39,-7.39,-0.97,10.39
7.3984,-20.22,-8.96,7.11,10.82,11.69,1.31,-3.98,-6.67,-12.58,-7.51,-7.81,-1.22,11.62,14.45
7.4063,-1.77,11.46,20.50,25.33,8.36,3.14,-1.90,-3.35,-12.17,-8.86,-1.90,3.38,10.88,15.30
7.4141,15.92,29.06,28.11,24.87,6.32,-1.64,-10.61,-9.48,-19.04,-11.68,3.08,8.88,19.30,20.94
7.4219,29.84,29.75,3.66,11.26,-6.94,-13.42,-13.23,-11.98,-14.96,-1.73,12.03,17.48,25.52,24.61
7.4297,16.33,12.64,11.89,-13.93,-13.06,-19.65,-18.65,-12.30,-4.36,8.67,18.23,31.72,26.33,27.75
7.4375,3.68,0.56,-17.48,-27.70,-23.57,-21.62,-14.27,-5.10,9.64,26.78,34.60,37.53,32.33,24.25
7.4453,-6.20,-10.57,-23.81,-13.25,-18.16,-12.97,2.55,14.10,23.95,34.49,41.30,32.14,27.35,10.42
7.4531,-6.09,-11.40,-16.65,-17.52,-7.49,1.97,10.37,23.11,29.89,33.06,28.55,20.61,1.96,-12.47
7.4609,-3.89,0.33,-9.38,-9.12,-3.52,7.48,15.87,23.70,32.75,24.84,19.35,5.16,-10.82,-22.74
7.4688,-5.26,-10.20,-14.84,-11.95,0.79,6.84,13.91,17.53,25.46,21.23,2.04,-9.06,-18.83,-20.79
7.4766,-14.76,-21.02,-19.85,-8.86,3.71,8.54,13.34,17.81,20.67,12.65,-0.50,-13.41,-12.84,-16.65
7.4844,-25.48,-18.65,-13.57,-0.21,6.90,14.50,20.89,22.53,15.57,4.15,-5.21,-12.72,-10.91,-3.48
7.4922,-15.15,-10.59,3.60,13.38,11.18,20.69,20.27,17.93,8.68,-1.13,-7.62,-11.13,-13.04,-4.64
7.5000,2.16,14.52,16.72,26.89,20.83,21.03,21.68,17.50,2.25,-11.19,-16.26,-13.71,-7.54,-0.09
7.5078,21.81,22.68,27.17,27.52,20.00,14.94,13.24,3.91,-7.55,-13.52,-19.32,-10.76,1.12,7.56
7.5156,26.46,21.30,21.56,15.25,9.32,3.87,0.44,-1.42,-17.12,-18.61,-10.72,2.08,15.36,19.46
7.5234,16.37,10.68,10.31,3.21,0.02,-4.98,-0.67,-6.23,-14.51,-3.35,2.30,11.37,22.06,27.35
7.5313,9.94,1.49,-1.38,-10.63,-1.31,-2.35,0.67,0.35,5.56,13.11,19.72,26.20,29.57,25.41
7.5391,2.82,2.33,-5.73,-8.41,2.05,6.43,11.01,9.38,17.51,17.52,27.44,27.81,23.25,14.81
7.5469,6.94,-2.23,-3.34,2.87,4.56,6.92,9.44,10.82,21.03,18.63,18.87,13.52,8.78,-4.34
7.5547,1.20,-3.02,-5.84,1.21,8.15,13.66,15.43,10.95,17.11,12.32,7.81,2.54,-4.48,-14.90
7.5625,-6.79,-13.60,-5.86,-5.91,7.48,12.68,7.42,8.99,10.67,11.81,7.77,2.28,-9.78,-11.62
7.5703,-23.22,-17.19,-17.06,-6.46,11.79,10.55,11.10,13.48,13.62,6.77,-0.35,-5.01,-10.57,-8.81
7.5781,-26.15,-17.48,-5.32,9.08,11.32,19.55,15.99,17.02,10.62,4.55,-2.02,-9.66,-11.63,-9.19
7.5859,-17.21,-5.24,12.05,28.39,24.13,21.56,21.39,14.42,3.10,-4.97,-9.66,-14.49,-16.59,-16.34
7.5938,2.26,19.56,34.24,27.67,25.76,19.51,15.57,4.76,-9.35,-19.65,-22.81,-22.12,-19.10,-12.67
7.6016,18.39,34.00,40.20,39.15,24.59,13.37,2.24,-7.34,-18.39,-24.65,-25.85,-16.61,-12.33,-2.40
7.6094,28.31,30.92,35.13,22.47,12.31,-3.18,-14.14,-13.46,-27.93,-22.82,-13.12,-7.82,5.76,6.90
7.6172,26.65,25.43,23.11,8.89,-1.53,-6.70,-13.00,-13.43,-20.74,-10.62,0.87,22.74,16.54,14.56
7.6250,17.77,17.03,17.82,5.17,-7.34,-9.81,-14.68,-8.04,-5.15,4.68,12.55,16.53,22.03,13.54
7.6328,27.85,19.83,14.88,1.36,-3.39,-10.91,-6.78,-0.99,-0.64,10.05,20.66,21.15,14.11,3.02
7.6406,31.00,21.29,13.99,-3.77,-3.06,-6.73,-2.76,2.54,4.96,11.93,19.46,11.47,-1.39,-6.40
7.6484,24.77,12.42,1.43,-15.34,-11.06,-7.13,-8.52,2.00,8.42,12.67,11.44,1.40,-7.77,-22.53
7.6563,5.58,-6.06,-13.93,-23.20,-17.30,-9.11,-7.25,5.29,13.39,12.19,8.53,1.80,-10.33,-26.09
7.6641,-13.49,-16.43,-22.67,-13.67,-15.26,-6.62,5.78,10.43,20.97,17.92,5.42,-6.61,-15.61,-25.65
7.6719,-20.71,-20.78,-22.92,-7.84,1.72,4.56,15.27,15.02,18.39,10.76,0.50,-13.94,-27.71,-31.31
7.6797,-16.74,-12.56,0.18,4.77,11.15,12.96,14.08,12.82,13.31,1.77,-26.51,-28.53,-35.52,-29.20
7.6875,-2.33,10.03,11.46,15.78,15.58,10.87,14.23,5.92,-1.08,-14.23,-33.72,-36.72,-35.44,-28.22
7.6953,6.10,11.28,18.02,20.01,9.18,6.08,5.83,-2.84,-20.01,-28.79,-34.23,-39.22,-28.05,-15.18
7.7031,8.74,8.18,14.04,7.41,-1.80,-11.41,-6.62,-16.68,-28.09,-32.09,-29.94,-23.97,-14.30,5.73
7.7109,8.30,4.07,3.00,4.73,0.41,-5.62,-10.01,-14.82,-22.04,-24.70,-17.08,-10.49,4.38,14.44
7.7188,13.34,9.56,5.62,1.08,0.21,-5.40,-9.57,-12.36,-16.80,-18.88,-9.87,0.30,11.28,16.37
7.7266,18.60,10.72,6.46,1.36,-4.51,-8.52,-6.37,-13.69,-19.25,-10.13,-5.44,6.16,9.62,14.40
7.7344,23.23,14.06,6.30,-1.07,-3.11,-9.95,-8.26,-14.35,-16.72,-6.18,-4.68,0.54,6.32,2.11
7.7422,16.68,4.65,-10.38,-16.26,-10.86,-12.65,-15.94,-15.28,-3.77,-0.87,5.17,8.13,6.40,4.70
7.7500,-2.00,-20.39,-26.29,-27.68,-20.41,-17.04,-15.91,-10.17,-1.90,2.49,7.84,7.31,7.84,2.60
7.7578,-19.89,-33.87,-33.21,-29.15,-16.39,-8.58,-1.64,-2.67,6.65,13.63,10.81,8.00,3.73,-2.82
7.7656,-33.11,-30.51,-23.53,-11.32,-3.41,-0.90,6.55,5.56,10.40,10.07,5.80,-7.17,-12.03,-12.64
7.7734,-21.04,-22.77,-8.21,4.91,6.34,6.82,9.41,8.26,5.46,0.22,-9.83,-15.36,-23.25,-20.15
7.7813,-13.24,-4.35,2.00,13.76,5.67,7.56,1.73,-4.78,-5.38,-17.48,-23.39,-22.55,-20.21,-15.62
7.7891,-10.89,-1.38,3.79,11.59,7.60,-3.79,-4.23,-17.00,-18.16,-22.49,-30.28,-25.11,-19.22,-6.39
7.7969,-8.97,-4.18,4.00,11.04,-3.59,-7.37,-15.31,-20.63,-26.47,-22.11,-18.56,-9.78,-0.22,10.03
7.8047,-5.40,1.52,5.28,9.32,-2.51,-7.23,-15.63,-19.19,-26.97,-20.77,-11.32,-2.26,6.04,19.63
7.8125,4.54,12.79,12.83,12.34,2.18,-8.94,-10.54,-13.92,-19.89,-15.59,0.89,4.54,17.55,19.93
7.8203,18.80,23.97,15.87,13.21,-1.54,-12.87,-14.63,-16.66,-16.20,-12.85,4.46,14.53,16.60,16.46
7.8281,30.63,19.45,10.86,-5.08,-11.67,-18.01,-22.69,-18.08,-18.23,-6.15,5.72,13.69,12.88,14.12
7.8359,16.07,6.12,-3.94,-20.19,-22.74,-29.08,-25.66,-21.88,-5.86,2.39,17.04,18.33,22.00,12.59
7.8438,-0.94,-14.74,-22.41,-40.50,-25.56,-31.48,-18.42,-8.71,8.80,17.43,27.11,25.57,22.41,9.96
7.8516,-13.25,-27.04,-35.91,-40.85,-22.71,-21.08,-10.63,3.69,18.31,25.64,30.96,24.01,14.55,-4.12
7.8594,-16.51,-23.59,-27.19,-29.01,-12.40,-7.04,3.55,17.68,25.34,26.60,20.16,8.54,-6.30,-13.30
7.8672,-14.03,-17.04,-16.37,-9.17,-2.81,5.72,6.89,18.90,24.47,20.79,4.62,-8.27,-18.82,-19.62
7.8750,-24.38,-12.33,-12.44,-6.86,0.51,5.10,7.05,8.21,16.84,7.46,-10.88,-17.84,-20.87,-21.77
7.8828,-18.63,-20.21,-16.04,-6.89,-5.33,5.13,4.45,9.21,4.68,-6.44,-15.53,-23.35,-16.89,-10.84
7.8906,-21.06,-16.65,-10.48,-3.12,-2.57,5.38,5.01,4.05,-1.08,-12.02,-16.85,-11.36,-4.98,-0.75
7.8984,-22.29,-11.92,-6.76,5.59,3.44,4.74,9.97,7.52,0.63,-7.52,-12.53,-10.46,-0.80,9.53
7.9063,-3.92,1.87,10.36,14.09,11.24,13.05,11.28,4.61,-11.61,-14.99,-14.57,-5.02,3.98,18.88
7.9141,15.06,13.55,18.63,13.80,10.43,3.42,4.44,-1.42,-16.96,-11.68,-9.72,0.18,7.41,17.63
7.9219,21.13,17.49,11.97,5.90,-0.49,-5.36,-5.29,-8.68,-20.14,-11.52,0.51,5.31,22.67,29.48
7.9297,12.71,7.57,-8.69,-9.28,-9.97,-14.99,-12.92,-10.01,-12.75,1.13,13.24,19.96,24.55,32.78
7.9375,-4.29,-9.68,-19.78,-21.35,-10.55,-6.38,-7.56,-4.08,2.63,11.56,26.51,34.00,29.51,27.08
7.9453,-11.15,-16.45,-19.30,-25.00,-9.92,-3.00,5.29,13.16,16.29,21.87,29.15,27.63,21.90,16.52
7.9531,-16.09,-21.26,-17.62,-10.24,3.94,7.42,11.98,18.80,28.17,27.56,26.10,18.87,9.21,-0.56
7.9609,-14.46,-15.06,-11.70,-0.08,10.25,16.22,11.62,14.03,20.02,17.79,9.77,5.04,-4.90,-7.38
7.9688,-17.08,-11.70,-8.44,-1.79,9.87,10.95,13.42,8.16,12.78,10.87,0.06,-2.37,-10.94,-8.99
7.9766,-27.55,-18.57,-8.61,-0.72,10.42,10.55,8.30,10.79,8.43,5.33,-2.34,-5.39,-8.54,-6.73
7.9844,-25.97,-16.87,-7.95,10.83,11.78,14.10,13.40,7.17,3.21,3.45,-13.60,-0.99,-0.69,0.18
7.9922,-21.28,-3.53,8.64,21.62,19.16,19.58,13.89,11.14,6.34,-4.17,-1.47,-5.27,-0.89,0.97
8.0000,-0.91,14.50,30.44,37.48,22.70,17.93,10.45,2.28,6.78,-9.71,-11.21,-4.17,4.46,6.69
8.0078,21.66,34.66,40.96,37.87,17.98,5.40,-1.10,-7.71,-12.28,-17.29,-11.56,1.55,4.83,13.43
8.0156,29.13,37.49,32.04,20.85,8.99,-1.71,-13.90,-13.33,-15.57,-13.04,-3.91,8.69,14.09,15.66
8.0234,20.89,23.18,18.55,19.41,-6.60,-10.47,-13.46,-13.63,-7.64,1.75,11.53,21.01,23.52,27.94
8.0313,16.08,14.04,0.88,-8.27,-8.32,-11.07,-6.38,-4.50,2.63,16.04,30.02,33.72,26.37,23.50
8.0391,14.15,11.38,-1.61,-8.99,-8.66,-7.36,1.43,8.37,15.05,25.16,36.23,28.16,18.55,2.99
8.0469,16.50,6.18,1.32,-4.97,0.22,2.81,4.79,15.36,25.79,30.46,24.53,20.26,1.84,-8.00
8.0547,13.61,8.77,-5.95,-7.16,1.68,1.49,10.41,15.05,27.92,21.89,18.05,1.73,-11.39,-17.70
8.0625,-0.44,-6.52,-10.52,-15.01,-1.79,2.60,7.26,15.47,21.42,16.51,7.72,-7.40,-28.99,-24.76
8.0703,-8.12,-18.68,-16.93,-9.82,-3.17,3.25,10.90,15.18,27.06,19.03,7.54,-10.29,-20.65,-19.88
8.0781,-21.07,-20.58,-15.16,-0.55,3.97,13.85,23.16,18.83,19.37,10.29,-6.16,-15.58,-19.57,-22.95
8.0859,-9.48,-3.34,7.93,13.63,19.71,25.56,25.16,25.64,13.66,0.25,-13.61,-20.43,-27.12,-19.78
8.0938,-4.39,12.94,22.89,31.51,19.02,20.40,22.97,9.82,2.17,-12.70,-22.94,-31.06,-26.65,-19.06
8.1016,18.62,22.61,30.92,26.68,21.21,11.68,6.89,2.30,-17.27,-24.44,-28.29,-28.29,-13.65,-4.66
8.1094,22.82,25.00,21.06,14.82,9.61,4.78,-1.31,-11.86,-25.13,-23.53,-24.69,-12.65,-5.87,5.83
8.1172,14.69,16.80,7.70,4.09,1.32,-3.64,-6.51,-12.91,-19.80,-16.45,-6.39,-1.88,10.59,21.86
8.1250,17.01,7.11,6.14,3.67,-1.65,-0.65,0.34,-2.23,-12.63,-6.74,0.10,11.91,15.42,16.40
8.1328,18.92,13.18,2.89,3.78,2.03,-0.36,0.28,1.95,-0.60,3.45,6.67,10.04,16.57,7.62
8.1406,22.40,9.90,3.72,1.93,1.64,-0.46,-1.33,0.95,1.29,8.23,3.75,7.05,3.41,-15.43
8.1484,16.43,6.44,-0.92,-3.19,-4.21,0.06,0.42,-0.72,1.25,1.22,0.87,-1.34,-5.95,-9.37
8.1563,-2.87,-13.65,-12.69,-17.33,-1.38,-4.53,-1.59,2.55,2.35,7.13,4.03,-3.17,-6.98,-13.54
8.1641,-18.14,-20.30,-24.18,-16.76,-1.05,1.67,5.83,4.16,12.62,8.04,3.24,-7.12,-10.20,-16.29
8.1719,-26.80,-22.71,-11.96,-3.29,4.32,8.38,11.28,7.60,8.43,8.09,-0.45,-12.62,-13.16,-20.75
8.1797,-20.65,-4.73,3.83,15.12,16.81,20.08,9.73,5.61,-0.20,-7.75,-14.79,-22.25,-25.54,-21.21
8.1875,-0.97,9.51,24.80,31.95,16.31,16.09,7.32,-6.93,-9.56,-20.58,-26.91,-27.45,-23.94,-19.75
8.1953,9.11,18.22,29.84,24.61,17.55,3.72,-7.36,-13.94,-27.26,-29.98,-38.25,-26.46,-20.79,-9.55
8.2031,7.52,21.91,24.72,20.48,7.68,-3.64,-14.30,-22.56,-30.23,-26.49,-21.25,-12.28,-1.91,1.46
8.2109,6.84,14.54,12.28,6.97,-0.60,-15.70,-20.37,-25.23,-30.03,-22.55,-6.94,-0.38,7.47,14.53
8.2188,18.22,14.87,16.33,3.73,-3.34,-14.72,-18.60,-21.22,-16.92,-12.25,-0.72,8.31,13.95,17.35
8.2266,26.42,26.58,20.05,7.14,-7.16,-17.07,-13.95,-13.51,-11.39,-4.42,4.86,11.29,10.09,10.48
8.2344,27.80,25.80,9.12,0.10,-12.45,-21.18,-18.04,-18.93,-9.94,-0.92,10.79,10.27,3.36,-4.16
8.2422,23.74,10.91,-4.85,-23.47,-24.18,-26.99,-19.44,-11.61,-6.64,2.63,12.48,7.96,3.94,-8.90
8.2500,8.26,-10.16,-22.81,-35.23,-27.45,-27.82,-19.75,-7.03,7.85,14.33,15.95,7.79,-1.88,-9.00
8.2578,-12.97,-28.43,-33.01,-32.61,-20.96,-12.67,-7.97,0.30,15.46,22.30,14.28,7.56,-5.32,-19.41
8.2656,-23.61,-28.70,-31.16,-22.19,-12.73,-0.61,4.82,14.05,23.83,16.77,9.60,-8.38,-20.35,-27.06
8.2734,-18.00,-18.55,-10.81,-9.81,1.61,4.45,7.30,9.93,13.54,1.70,-11.08,-18.10,-27.08,-28.09
8.2813,-6.81,-5.39,-6.87,3.24,1.38,5.33,5.83,7.39,3.75,-11.81,-23.51,-28.73,-32.23,-27.18
8.2891,-4.74,-3.03,-1.37,17.51,1.56,-2.37,1.23,-8.36,-8.70,-24.50,-27.06,-35.74,-22.75,-10.72
8.2969,-6.65,-9.47,-1.63,-1.86,-2.24,-3.99,-6.32,-9.12,-18.31,-25.98,-28.21,-22.95,-12.85,7.06
8.3047,-6.77,-8.27,-1.88,2.33,-0.46,-3.18,-6.77,-9.61,-21.85,-19.35,-19.49,-10.44,0.78,15.33
8.3125,-1.69,2.41,4.05,2.80,-0.35,-3.90,-4.83,-5.81,-17.38,-16.09,-15.12,-1.39,12.65,22.19
8.3203,12.92,13.34,-1.08,3.01,1.19,-2.64,-5.92,-9.83,-21.88,-15.90,-10.28,-1.58,13.28,19.08
8.3281,21.03,11.36,2.22,-7.03,-11.94,-15.82,-11.70,-16.61,-16.60,-11.38,-0.58,5.33,16.37,21.48
8.3359,8.13,-1.49,-12.44,-20.07,-18.27,-15.65,-16.94,-17.57,-11.02,-5.02,3.83,16.19,22.99,20.29
8.3438,-11.75,-22.70,-26.29,-33.72,-17.56,-15.49,-16.45,-11.02,-2.18,10.92,16.28,19.19,19.47,20.09
8.3516,-23.58,-31.90,-33.08,-29.16,-17.63,-6.22,-1.16,4.65,16.54,20.98,24.82,21.68,13.20,7.80
8.3594,-25.97,-29.18,-25.41,-15.14,-3.79,4.54,5.57,11.80,21.16,18.23,16.19,11.55,3.92,-6.26
8.3672,-26.63,-25.95,-13.23,-4.01,5.02,9.05,7.86,13.41,16.01,7.31,1.39,-7.51,-10.41,-10.49
8.3750,-17.84,-13.76,-4.74,0.61,9.30,5.70,2.43,-0.39,9.30,-6.22,-7.05,-11.11,-16.58,-13.59
8.3828,-22.12,-12.77,-3.08,1.03,6.03,4.93,2.11,-2.03,-1.04,-13.94,-12.21,-8.30,-21.18,-3.45
8.3906,-22.54,-16.43,-0.16,4.97,5.65,6.17,1.71,-6.02,-6.36,-11.86,-12.75,-5.56,3.87,6.07
8.3984,-18.75,-7.17,6.59,11.68,7.47,8.26,-1.55,-6.06,-12.07,-12.69,-1.37,3.50,12.34,12.25
8.4063,-1.69,9.76,23.27,21.68,13.92,3.86,0.02,-1.18,-15.05,-13.49,-5.81,7.75,16.00,19.88
8.4141,14.62,22.86,31.86,23.20,2.70,-4.94,-5.93,-11.61,-15.38,-9.48,-0.78,10.74,21.27,19.49
8.4219,28.60,29.92,23.83,12.34,-8.66,-12.46,-15.71,-12.27,-13.60,-2.96,4.72,17.92,20.07,24.63
8.4297,20.91,12.03,2.23,-10.11,-19.70,-18.93,-17.98,-10.99,-3.70,6.35,22.08,31.98,29.54,25.81
8.4375,9.37,-2.85,-11.31,-25.15,-20.10,-17.27,-15.71,-0.83,6.64,22.64,35.87,32.61,29.34,18.03
8.4453,-2.08,-9.18,-23.09,-21.81,-18.28,-13.77,1.81,8.96,23.66,35.92,36.34,29.61,19.51,4.83
8.4531,-3.49,-9.12,-13.54,-13.49,-6.22,1.49,6.28,22.38,32.51,34.65,34.70,17.40,6.06,-10.41
8.4609,-7.28,-9.69,-12.96,-8.86,-0.81,7.81,16.07,16.67,31.69,26.31,20.65,0.09,-14.02,-17.23
8.4688,-9.30,-15.19,-14.40,-5.51,-3.97,8.48,11.55,19.24,27.96,14.74,3.68,-9.43,-15.42,-20.51
8.4766,-19.21,-17.92,-12.63,-7.17,-3.76,11.57,11.35,17.06,22.76,11.79,-4.46,-8.99,-14.69,-10.58
8.4844,-26.25,-16.50,-15.00,-1.07,4.95,12.12,19.85,15.71,16.02,5.69,-6.80,-7.55,-9.78,-2.66
8.4922,-21.71,-6.20,3.96,17.56,17.95,19.58,23.88,18.02,9.77,-0.11,-11.52,-13.02,-12.75,-2.53
8.5000,3.89,14.31,21.09,28.90,17.74,25.30,16.42,14.46,-1.98,-7.57,-14.52,-14.20,-5.98,5.74
8.5078,16.34,36.84,28.75,31.72,19.40,13.48,10.94,2.86,-9.91,-13.43,-15.33,-10.16,0.83,11.27
8.5156,24.99,28.02,25.61,17.86,8.30,3.91,1.97,-8.70,-18.87,-18.63,-10.48,2.76,8.46,23.43
8.5234,17.08,9.48,4.56,-2.49,-3.21,1.24,-2.73,-8.27,-13.53,-5.02,4.29,14.66,27.22,27.41
8.5313,11.60,5.88,-1.02,-4.87,-4.94,2.36,-2.99,4.24,-0.01,6.86,17.29,25.00,27.57,27.39
8.5391,6.17,-5.15,-7.33,-6.14,-0.44,8.38,9.03,12.04,17.38,16.73,24.76,27.34,20.83,13.10
8.5469,8.85,-1.05,-5.20,-4.58,10.57,8.60,14.33,11.71,21.86,19.53,17.70,19.01,12.91,-2.67
8.5547,4.93,-3.85,-3.60,3.23,8.24,9.11,8.32,8.56,19.85,11.87,11.95,5.24,-4.89,-9.37
8.5625,-2.11,-6.35,-12.83,-6.91,8.21,8.74,13.89,11.35,15.48,10.78,4.19,2.43,-6.70,-10.67
8.5703,-17.00,-22.61,-9.10,-6.45,7.71,9.94,10.72,11.53,18.16,5.12,0.22,-5.31,-9.65,-9.08
8.5781,-27.84,-17.45,-4.27,4.43,15.33,16.59,19.12,15.81,9.36,4.32,1.60,-5.81,-12.32,-10.71
8.5859,-13.20,-0.26,14.88,25.46,22.02,25.05,16.82,14.60,4.29,-5.59,-8.26,-17.74,-11.27,-9.99
8.5938,5.45,19.42,30.97,37.56,30.55,20.28,12.63,2.50,-5.81,-14.44,-20.60,-22.54,-13.68,-8.29
8.6016,23.77,31.01,37.76,36.13,24.99,11.50,3.91,-6.73,-24.82,-24.30,-20.23,-17.15,-6.92,-6.36
8.6094,25.67,33.85,31.27,22.36,7.33,-2.64,-9.75,-17.04,-30.21,-23.18,-17.63,-5.95,3.24,6.81
8.6172,26.10,28.11,17.68,12.52,2.96,-9.15,-14.87,-19.87,-23.95,-13.06,-0.01,7.82,12.49,14.76
8.6250,18.76,19.87,16.52,2.44,-2.48,-10.23,-14.37,-13.56,-7.95,0.33,16.84,21.34,22.63,11.24
8.6328,25.46,21.45,16.72,2.77,-1.44,-4.47,-7.55,-6.61,3.57,15.39,15.29,21.16,10.49,0.06
8.6406,26.64,20.04,11.44,-2.24,-2.58,-5.36,-2.42,-1.39,3.35,24.03,17.84,15.56,1.18,-11.09
8.6484,27.96,15.10,-3.49,-13.24,-12.61,-10.37,-9.67,0.73,9.58,17.17,14.18,0.53,-6.46,-17.24
8.6563,9.90,-8.74,-13.49,-22.27,-10.98,-12.29,-5.67,2.59,17.78,16.02,6.95,-1.82,-14.48,-21.21
8.6641,-8.72,-20.09,-28.17,-26.19,-12.30,-6.71,5.73,11.30,16.58,14.06,8.39,-4.26,-19.72,-22.88
8.6719,-18.16,-21.10,-19.77,-11.14,-4.89,9.55,10.08,14.06,18.86,7.88,-5.03,-17.67,-25.07,-28.56
8.6797,-15.25,-5.71,-4.19,5.46,10.39,13.48,18.91,16.82,10.07,-5.03,-18.68,-25.33,-35.69,-29.11
8.6875,0.85,4.21,11.77,21.59,9.82,18.30,8.68,6.66,-6.34,-18.03,-33.33,-39.94,-38.35,-29.73
8.6953,11.62,13.38,19.56,19.71,12.75,5.46,1.76,-4.49,-18.70,-28.67,-35.86,-33.53,-26.80,-11.05
8.7031,7.21,14.47,15.00,11.14,3.09,-2.74,-9.27,-22.26,-26.00,-34.24,-32.16,-20.67,-9.98,2.80
8.7109,4.69,6.08,4.17,-0.22,1.51,-4.22,-8.36,-12.42,-25.88,-21.22,-22.40,-6.06,4.57,14.34
8.7188,6.75,10.75,3.18,4.36,-0.19,-0.78,-11.38,-13.65,-18.41,-16.74,-10.26,-2.51,11.68,17.23
8.7266,13.82,10.62,10.42,5.73,-4.77,-1.16,-4.94,-10.45,-11.61,-13.72,-5.56,2.93,8.25,13.59
8.7344,20.59,15.09,6.03,-6.82,-7.55,-7.05,-8.43,-14.11,-15.73,-9.72,-3.06,6.17,4.53,6.97
8.7422,10.37,3.84,-13.51,-17.81,-15.91,-17.48,-12.32,-16.32,-6.12,-1.81,4.04,3.72,5.13,1.51
8.7500,-2.46,-14.83,-22.57,-28.79,-19.68,-17.63,-15.11,-8.85,-2.12,1.05,5.29,3.94,2.80,0.37
8.7578,-22.00,-29.62,-30.03,-32.72,-17.03,-4.09,-2.54,-1.24,8.38,8.91,7.82,9.40,0.55,-4.91
8.7656,-32.81,-31.52,-21.41,-16.89,-2.56,4.89,5.67,7.57,9.88,-3.16,5.32,-5.30,-6.83,-12.89
8.7734,-26.14,-20.45,-11.12,4.82,6.09,13.25,6.05,1.66,4.51,-6.00,-11.11,-20.12,-22.97,-21.13
8.7813,-15.84,-9.34,6.26,13.98,6.67,4.09,-1.26,-1.84,2.33,-16.80,-23.15,-25.70,-21.60,-20.48
8.7891,-8.94,-1.31,8.17,10.75,4.48,-2.38,-9.64,-13.05,-16.81,-26.13,-25.70,-22.30,-12.81,-10.72
8.7969,-11.06,-0.31,7.38,9.48,-1.61,-9.46,-13.01,-17.00,-23.69,-22.11,-17.71,-11.22,-5.06,8.62
8.8047,-6.99,-1.93,4.07,9.75,1.42,-4.66,-18.13,-18.76,-24.45,-22.41,-8.67,3.38,10.84,13.55
8.8125,2.12,11.80,11.20,9.37,0.42,-8.99,-15.97,-15.89,-19.85,-16.65,0.12,11.03,16.99,21.86
8.8203,18.04,24.33,21.75,9.89,-1.11,-13.99,-19.32,-16.89,-22.30,-9.28,-1.14,13.89,14.44,16.53
8.8281,26.13,26.63,8.96,0.73,-17.67,-18.30,-24.83,-16.18,-20.52,-2.58,4.05,10.71,13.49,13.49
8.8359,20.29,7.29,-3.16,-23.62,-23.54,-31.66,-23.87,-18.44,-11.29,10.20,16.70,17.48,17.07,14.27
8.8438,0.09,-12.63,-24.28,-40.78,-32.07,-25.69,-17.81,-5.48,6.88,16.54,25.82,25.65,22.19,10.12
8.8516,-12.15,-29.07,-31.76,-34.19,-23.39,-21.18,-6.83,2.91,24.96,30.63,30.85,19.51,12.61,-3.81
8.8594,-19.05,-25.60,-28.80,-27.01,-17.47,-3.96,5.67,15.71,27.37,31.60,23.13,5.81,-2.83,-15.76
8.8672,-14.30,-20.42,-18.25,-9.85,-2.35,2.01,11.88,13.42,25.63,18.66,5.63,-9.72,-20.76,-22.93
8.8750,-13.09,-12.32,-10.52,-4.83,0.81,3.42,9.57,9.98,10.52,1.39,-5.47,-15.95,-21.95,-21.96
8.8828,-21.38,-20.75,-13.74,-4.99,-2.04,0.02,8.14,2.23,2.92,-1.86,-11.83,-16.30,-16.21,-6.40
8.8906,-20.99,-15.14,-9.38,-0.92,1.50,0.75,5.38,7.32,-1.02,-4.44,-14.97,-14.99,-8.97,4.12
8.8984,-21.20,-12.09,-6.72,4.60,0.69,7.95,5.19,8.94,-6.72,-11.93,-12.44,-9.54,-3.11,12.81
8.9063,-8.26,7.28,14.83,17.29,10.36,10.50,8.91,4.50,-9.01,-8.76,-7.34,-6.85,7.36,14.70
8.9141,16.33,20.71,16.89,13.36,3.79,3.78,4.45,-5.86,-11.97,-14.94,-12.14,0.72,13.03,22.18
8.9219,17.73,18.68,10.91,4.21,-1.68,-6.52,-8.32,-11.26,-18.08,-9.55,-3.06,8.98,20.03,27.70
8.9297,13.46,0.49,-6.29,-16.05,-9.69,-12.27,-8.47,-8.01,-8.91,3.63,13.73,20.00,28.91,28.61
8.9375,-6.85,-11.11,-21.63,-22.11,-10.89,-11.15,-7.69,-2.92,8.17,14.95,26.65,34.14,32.77,30.51
8.9453,-14.83,-18.81,-25.50,-21.43,-5.21,-3.41,7.46,10.42,20.08,25.14,27.26,32.98,27.49,14.35
8.9531,-15.28,-21.62,-15.51,-6.64,-0.94,11.29,11.32,12.44,24.77,27.53,24.17,16.15,11.14,-0.80
8.9609,-9.93,-15.80,-8.55,-2.26,8.64,14.90,12.92,11.89,21.53,14.39,9.62,5.50,-2.78,-10.52
8.9688,-15.38,-14.85,-11.13,2.42,7.87,12.22,10.51,10.22,11.09,7.33,2.57,-9.53,-10.41,-12.56
8.9766,-28.49,-19.51,-9.72,-1.71,5.81,10.77,8.93,10.07,10.20,6.42,-1.09,-7.24,-3.05,-5.82
8.9844,-30.15,-20.44,-4.08,9.33,16.01,17.49,14.92,10.42,9.73,1.34,-5.90,-2.64,-0.23,2.86
8.9922,-34.30,-7.28,14.91,20.95,21.54,20.69,18.47,7.23,-1.19,-2.18,2.27,-0.24,2.72,2.05
9.0000,-0.14,20.10,31.57,34.74,22.87,18.12,10.74,5.76,-9.55,-11.78,-6.19,-0.27,-1.07,9.00
9.0078,21.65,34.75,42.66,34.59,22.29,8.99,3.76,-5.81,-16.44,-1.01,-4.84,-2.93,8.26,14.96
9.0156,26.81,37.12,31.70,18.02,6.04,-4.56,-9.91,-14.69,-17.29,-13.73,-1.08,6.29,12.87,18.67
9.0234,25.13,26.90,17.09,0.99,-8.41,-9.43,-18.13,-9.87,-7.44,2.54,13.46,27.23,30.01,22.32
9.0313,16.33,9.12,6.64,-9.94,-9.33,-12.06,-5.42,-5.23,6.81,20.40,29.37,31.41,29.34,17.46
9.0391,17.43,10.84,-2.43,-8.52,-7.39,-3.57,-0.14,11.38,17.63,26.94,31.27,32.09,21.01,8.30
9.0469,16.46,7.93,1.28,-7.29,-6.33,2.14,4.02,11.69,26.39,30.19,30.74,17.76,6.91,-10.53
9.0547,13.72,3.50,-2.47,-6.06,0.47,5.05,7.39,14.42,27.08,21.92,18.91,4.03,-10.17,-17.87
9.0625,4.04,-8.65,-7.95,-14.68,0.22,1.71,8.62,12.24,27.13,17.26,7.52,-0.86,-17.07,-21.52
9.0703,-8.87,-14.63,-17.69,-11.30,0.32,4.31,16.70,15.49,21.77,16.13,5.75,-7.92,-17.95,-19.14
9.0781,-23.27,-17.29,-13.85,-3.57,7.71,12.18,20.66,18.51,22.13,12.10,-6.19,-10.38,-23.87,-17.95
9.0859,-15.66,-8.53,8.22,19.55,17.27,26.29,23.05,24.46,14.61,0.15,-14.07,-23.63,-21.99,-22.03
9.0938,4.78,13.03,19.22,31.31,25.25,20.33,23.66,15.56,-2.40,-17.36,-23.86,-27.10,-12.49,-13.75
9.1016,18.88,22.10,31.24,40.20,14.96,16.08,10.53,-3.53,-11.47,-24.01,-28.02,-28.56,-17.20,-8.14
9.1094,20.77,27.97,23.56,14.72,6.83,7.71,0.86,-5.47,-25.95,-25.92,-23.71,-13.00,-3.05,12.76
9.1172,17.44,13.21,12.07,4.78,5.13,0.06,-6.89,-5.97,-20.99,-15.16,-10.67,-3.15,9.16,18.64
9.1250,16.98,9.68,6.40,0.74,0.75,1.99,-5.11,-5.40,-6.49,-1.37,1.43,9.23,19.48,21.73
9.1328,12.93,9.59,5.33,-0.45,-0.53,4.94,1.79,-1.29,1.43,-0.57,11.79,10.57,16.35,7.56
9.1406,18.42,12.34,3.29,-0.33,5.64,-0.37,0.55,-1.29,3.18,4.68,7.59,9.51,6.67,-1.63
9.1484,11.62,4.84,-2.15,-6.36,-5.08,-3.23,-4.03,-4.54,1.94,7.80,3.45,0.33,1.48,-6.08
9.1563,-0.12,-9.96,-16.61,-12.45,-4.31,-0.85,-4.84,-1.22,5.25,9.14,-0.05,0.73,-8.99,-14.85
9.1641,-23.08,-22.46,-23.86,-14.51,-4.26,3.83,7.18,1.96,7.93,8.26,-1.46,-2.29,-7.97,-10.95
9.1719,-30.25,-26.21,-11.01,-0.44,6.46,13.49,9.29,12.14,1.14,1.92,-1.41,-8.05,-14.60,-21.48
9.1797,-17.55,-9.67,2.96,17.97,19.40,20.24,13.19,10.84,0.99,-6.77,-12.13,-23.34,-26.10,-23.86
9.1875,-4.58,10.11,24.71,29.93,17.28,11.75,2.68,-1.34,-8.16,-21.40,-26.20,-25.34,-26.19,-19.41
9.1953,6.56,19.17,24.78,24.58,13.80,3.71,-4.50,-11.52,-27.08,-31.03,-32.01,-30.08,-15.61,-9.76
9.2031,-0.53,15.02,17.22,15.11,7.18,-6.32,-13.75,-20.26,-34.59,-34.29,-22.43,-13.21,-2.00,7.02
9.2109,8.51,16.62,13.70,8.98,-3.99,-10.25,-21.71,-23.73,-27.70,-19.72,-13.03,3.24,13.28,17.21
9.2188,17.91,19.40,13.40,5.40,-7.54,-20.15,-15.98,-14.59,-18.77,-10.98,2.78,8.72,12.01,18.07
9.2266,21.79,22.29,13.93,8.21,-10.63,-12.52,-17.42,-17.24,-12.50,0.13,2.84,10.33,9.73,3.85
9.2344,33.92,25.21,11.06,-0.35,-9.35,-16.57,-22.22,-11.97,-12.46,-0.56,5.65,12.97,2.43,-4.79
9.2422,27.70,11.08,-2.75,-22.97,-21.72,-21.07,-22.55,-11.80,-4.71,4.11,11.62,12.99,4.77,-8.33
9.2500,2.66,-6.51,-24.26,-32.10,-28.28,-28.35,-19.16,-4.59,4.10,13.74,10.90,9.87,3.10,-6.04
9.2578,-16.30,-24.53,-37.54,-39.14,-22.62,-13.70,-8.19,6.18,18.12,18.79,13.40,6.24,-3.13,-17.47
9.2656,-22.12,-29.09,-29.94,-22.93,-15.65,-1.59,1.43,15.23,25.82,15.48,4.16,-6.44,-22.08,-27.04
9.2734,-16.98,-19.38,-13.66,-5.29,-5.03,6.16,13.93,10.95,13.65,6.68,-5.02,-18.93,-32.40,-30.81
9.2813,-7.26,-7.61,-5.75,-0.40,0.59,4.00,9.50,20.41,4.30,-13.08,-26.69,-30.22,-34.61,-31.09
9.2891,-5.76,-1.78,-0.67,-0.13,2.62,3.54,1.88,-8.08,-10.94,-22.20,-27.66,-30.86,-23.06,-10.77
9.2969,-10.66,-8.27,-3.07,1.40,-2.58,-1.74,-1.93,-8.37,-19.60,-22.37,-22.79,-18.25,-7.86,2.32
9.3047,-10.82,-4.17,1.10,-0.04,-6.92,-2.29,-6.09,-10.90,-14.86,-24.44,-18.17,-7.42,-0.30,17.75
9.3125,-3.54,3.17,1.80,7.64,-2.47,-1.24,-5.23,-11.26,-20.62,-15.51,-15.12,0.02,12.17,20.18
9.3203,14.22,16.59,6.90,6.97,10.49,-4.24,-11.19,-8.36,-20.94,-18.07,-8.08,5.80,10.43,17.19
9.3281,17.52,9.28,6.47,-2.14,-8.98,-14.75,-13.98,-13.14,-19.72,-14.79,-1.03,4.38,12.65,19.30
9.3359,6.56,-4.74,-11.83,-22.43,-15.44,-18.95,-14.98,-18.99,-10.20,1.03,5.21,18.02,16.41,18.61
9.3438,-4.97,-23.71,-40.37,-32.47,-22.04,-19.22,-12.62,-11.28,-1.91,12.54,13.46,25.52,24.10,21.13
9.3516,-23.55,-34.12,-34.36,-31.79,-17.96,-6.01,-1.15,5.13,16.13,19.31,18.52,23.90,12.54,8.05
9.3594,-25.37,-31.30,-28.71,-19.46,-7.65,4.52,7.92,11.98,22.74,17.63,17.01,14.39,-0.40,-4.92
9.3672,-21.93,-18.73,-16.35,-6.52,3.05,10.52,10.34,13.13,14.82,7.19,3.03,-3.55,-5.98,-15.63
9.3750,-20.12,-19.31,-7.56,0.33,5.71,4.32,8.89,4.81,4.96,-5.99,-8.48,-14.88,-11.60,-9.44
9.3828,-14.68,-13.73,-16.62,4.70,2.18,0.30,-0.97,-3.20,-6.23,-6.68,-11.01,-14.75,-12.28,-3.45
9.3906,-31.27,-18.29,-4.83,2.49,5.37,6.53,-1.99,-1.38,-7.50,-9.86,-8.44,-2.44,-1.94,9.35
9.3984,-16.69,-3.31,4.62,16.50,11.38,0.76,0.46,-7.30,-13.09,-8.92,-8.26,-1.46,11.12,13.28
9.4063,-16.74,11.68,18.90,23.47,3.84,0.36,1.20,-4.82,-15.11,-10.30,-2.14,6.05,15.33,18.33
9.4141,17.57,24.80,30.72,19.05,6.98,-1.96,-5.64,-11.33,-18.85,-10.69,-2.28,11.20,12.81,21.16
9.4219,28.79,29.19,19.49,12.45,-2.02,-16.27,-15.40,-18.30,-14.73,-4.22,11.07,17.05,23.99,22.26
9.4297,23.77,9.97,3.16,-12.22,-18.97,-23.28,-22.86,-14.39,-8.03,4.24,19.98,26.70,27.52,25.87
9.4375,2.42,-5.86,-11.23,-22.79,-22.47,-22.73,-12.01,0.42,11.15,25.64,30.93,39.11,26.92,18.96
9.4453,-0.96,-13.61,-15.70,-28.01,-13.31,-12.23,1.55,11.40,28.18,37.39,40.03,34.03,19.86,8.82
9.4531,-2.73,-12.74,-11.89,-13.21,-4.72,0.83,10.03,15.92,38.93,32.33,31.48,16.39,7.81,-5.34
9.4609,-3.52,-5.43,-10.41,-9.62,6.24,6.54,15.74,18.10,28.40,28.98,18.03,2.00,-8.07,-18.09
9.4688,-10.93,-8.65,-16.88,-5.11,-0.82,2.16,4.29,13.54,22.55,19.66,7.91,-4.66,-17.87,-19.14
9.4766,-18.32,-22.15,-17.24,-9.52,-3.08,10.88,15.28,15.57,22.73,14.11,-0.96,-7.06,-16.44,-12.27
9.4844,-23.05,-20.14,-10.01,1.70,9.25,10.88,15.63,19.27,19.88,7.51,-6.29,-14.19,-8.12,-8.08
9.4922,-27.72,-9.35,5.08,17.73,12.13,16.20,18.19,21.19,10.07,-0.19,-7.94,-12.65,-9.02,1.16
9.5000,-0.63,8.61,18.37,30.98,20.35,18.20,19.95,11.87,0.31,-8.98,-17.42,-12.81,-10.50,6.53
9.5078,16.05,24.09,30.06,32.40,18.02,12.02,9.90,4.65,-7.89,-19.51,-12.67,-11.36,-3.43,8.39
9.5156,22.60,25.42,23.43,18.43,9.08,1.05,1.26,-12.44,-17.72,-14.17,-11.45,-0.62,10.73,24.44
9.5234,16.47,10.16,6.11,1.92,-1.64,-5.25,-4.87,-3.21,-8.67,-6.26,0.86,17.42,21.36,26.90
9.5313,11.31,3.26,-2.62,-10.48,-11.72,-3.04,-1.45,4.10,0.01,12.68,18.54,23.11,28.14,25.62
9.5391,5.00,-0.77,-2.99,-8.50,1.15,5.32,6.08,12.63,11.51,23.36,21.63,23.67,21.38,14.88
9.5469,6.75,-2.54,-5.33,1.12,7.61,7.48,11.31,16.45,21.69,24.03,18.68,18.32,8.72,0.21
9.5547,2.67,-1.17,-2.33,2.79,-1.88,13.40,10.60,12.62,17.76,15.16,15.08,4.28,-4.08,-15.15
9.5625,-6.89,-7.28,-10.94,-4.36,5.50,6.03,8.50,8.03,10.84,11.86,2.54,-0.32,-4.18,-11.79
9.5703,-20.07,-17.05,-14.01,-5.61,5.36,7.96,13.12,8.77,14.91,10.00,-1.56,-5.04,-11.28,-13.21
9.5781,-25.51,-19.60,-8.93,9.61,18.13,17.38,16.50,12.23,9.69,1.51,-1.73,-6.39,-9.05,-15.08
9.5859,-19.15,-4.09,15.46,24.51,23.74,25.25,15.13,9.90,8.43,-1.56,-11.27,-13.69,-14.11,-13.20
9.5938,4.41,19.59,29.65,38.78,29.30,22.12,10.84,6.08,-6.80,-14.22,-21.31,-18.58,-17.33,-10.23
9.6016,19.15,34.64,39.67,40.28,20.82,9.12,-1.26,-12.38,-23.49,-23.93,-19.36,-12.32,-7.86,-4.73
9.6094,23.72,33.97,33.83,23.58,12.54,-2.18,-14.61,-18.85,-31.89,-18.70,-12.40,-4.01,3.53,8.44
9.6172,23.55,21.74,23.25,10.57,-1.25,-7.01,-13.90,-13.15,-24.22,-10.09,2.48,12.14,18.96,20.80
9.6250,21.09,21.32,13.21,3.55,-7.68,-8.25,-14.63,-7.36,-7.55,4.03,13.44,16.06,16.46,15.39
9.6328,22.15,21.72,14.49,2.68,-0.94,-10.47,-8.04,-1.09,-1.07,8.89,18.76,17.28,9.85,1.94
9.6406,27.62,23.51,11.21,-2.01,-3.35,-6.16,-8.77,-2.35,7.96,13.10,12.68,12.99,-1.75,-11.64
9.6484,22.65,8.93,-2.36,-14.63,-7.10,-11.54,-7.62,-3.47,6.18,18.35,14.82,1.06,-8.51,-18.40
9.6563,9.52,-4.01,-18.77,-26.10,-16.98,-9.32,-6.51,-0.94,12.02,15.20,9.86,-2.56,-13.51,-21.15
9.6641,-11.13,-23.41,-26.52,-21.36,-11.52,-8.22,-0.84,6.73,21.05,17.17,7.67,-5.63,-13.96,-26.97
9.6719,-20.94,-18.52,-21.68,-9.57,-5.35,2.25,10.45,13.12,20.22,7.86,-2.83,-14.90,-22.06,-30.89
9.6797,-10.77,-11.76,-6.11,10.62,8.46,11.68,18.29,19.67,8.92,-0.13,-17.88,-30.51,-34.53,-34.06
9.6875,0.03,4.35,12.71,21.68,12.20,11.47,15.15,5.99,-5.21,-18.18,-27.76,-36.67,-34.83,-28.45
9.6953,11.52,16.15,18.83,21.56,12.83,4.10,3.87,-5.74,-18.18,-32.62,-38.23,-37.58,-26.23,-13.21
9.7031,13.78,14.68,11.97,8.83,3.38,-2.44,-6.80,-14.49,-24.61,-13.41,-29.13,-25.22,-13.89,3.36
9.7109,5.26,11.03,5.50,1.01,-0.06,-8.52,-11.23,-12.58,-24.60,-21.44,-20.01,-5.68,5.53,13.80
9.7188,5.71,9.31,10.05,5.82,-5.65,-2.12,-8.56,-14.04,-17.16,-18.85,-5.13,-0.11,12.64,18.89
9.7266,20.43,12.90,10.20,3.58,-8.54,-1.36,-6.62,-11.07,-18.93,-11.29,-0.75,5.65,8.85,12.78
9.7344,18.14,16.78,2.20,0.57,-5.57,-11.59,-7.31,-13.32,-11.75,-9.04,0.71,4.13,4.66,8.98
9.7422,11.66,-1.43,-7.58,-17.35,-10.72,-11.44,-13.80,-10.25,-7.88,-1.55,3.75,3.33,6.71,1.11
9.7500,-6.94,-14.72,-28.43,-31.85,-20.34,-11.90,-15.88,-12.59,-3.28,5.51,4.98,4.97,2.72,3.56
9.7578,-19.98,-28.51,-33.08,-28.09,-11.28,-7.98,-2.77,-0.54,10.02,10.56,9.90,6.94,3.93,-8.01
9.7656,-33.22,-33.39,-23.12,-16.53,-0.76,1.16,3.77,6.19,14.66,10.94,0.44,-1.61,-5.81,-16.34
9.7734,-28.09,-19.28,-5.81,4.26,7.38,8.61,6.27,8.45,7.76,-3.15,-12.61,-14.59,-18.36,-22.14
9.7813,-17.34,-4.76,6.45,9.44,8.90,6.01,6.01,-3.36,-12.01,-16.16,-21.48,-22.92,-25.07,-21.87
9.7891,-13.57,0.12,6.77,16.00,7.54,2.50,-5.92,-11.81,-17.21,-26.28,-25.62,-14.61,-14.87,-7.10
9.7969,-9.19,-3.53,6.17,6.22,-1.04,-5.05,-16.59,-16.72,-23.65,-24.06,-20.66,-15.28,-2.84,11.25
9.8047,-9.19,2.48,10.41,6.77,-3.57,-9.43,-16.50,-14.23,-26.07,-18.49,-21.00,-3.76,6.80,14.22
9.8125,1.53,8.73,13.71,14.66,-3.69,-8.29,-16.32,-13.98,-17.85,-13.90,-0.30,10.43,11.87,19.38
9.8203,35.12,22.66,17.46,6.86,-2.04,-9.96,-25.76,-18.04,-18.04,-5.64,-0.63,11.45,14.07,17.78
9.8281,25.72,24.28,13.05,-5.13,-11.53,-22.89,-24.74,-17.71,-20.10,-2.35,5.85,11.71,15.68,17.21
9.8359,21.49,10.12,-8.77,-21.95,-27.66,-27.94,-25.02,-21.91,-11.17,2.93,17.78,17.38,16.41,15.95
9.8438,5.12,-11.09,-29.29,-40.85,-32.67,-28.19,-16.48,-6.27,7.01,23.11,25.41,26.41,17.52,5.49
9.8516,-15.67,-28.17,-30.32,-33.57,-23.74,-17.22,-3.54,4.95,22.69,26.37,30.15,25.46,9.73,-0.97
9.8594,-19.19,-27.79,-25.53,-28.24,-14.68,-5.97,5.00,11.94,30.05,24.95,17.90,9.01,-4.95,-16.82
9.8672,-17.02,-21.68,-17.86,-13.82,-8.76,5.32,13.15,17.70,24.87,14.90,5.95,-10.28,-16.60,-24.36
9.8750,-11.98,-17.80,-16.55,-5.07,-4.29,0.76,5.08,13.99,15.36,6.91,-6.98,-12.55,-26.40,-22.35
9.8828,-20.08,-14.06,-14.38,-7.14,-5.58,2.10,2.23,4.48,3.64,-8.66,-11.36,-19.63,-21.96,-12.43
9.8906,-26.53,-18.07,-11.80,-2.14,-3.46,-0.48,6.41,4.54,-0.18,-6.69,-10.88,-12.89,-9.11,5.18
9.8984,-16.91,-11.36,-1.05,8.23,19.39,7.40,4.41,5.32,-4.03,-8.00,-8.26,-5.86,4.22,9.52
9.9063,-4.41,2.46,11.62,15.66,7.42,6.17,8.25,3.74,-4.83,-13.91,-9.95,-2.36,5.55,14.92
9.9141,12.36,16.38,17.00,18.08,6.28,8.64,-1.37,-5.58,-12.36,-10.37,-11.93,0.89,6.96,18.49
9.9219,21.50,19.55,13.38,5.12,-4.45,-5.59,-9.65,-7.70,-20.24,-14.28,-4.21,9.89,21.60,29.50
9.9297,8.72,3.20,-3.77,-13.19,-12.51,-10.04,-9.62,-9.56,-5.68,1.88,11.54,17.41,29.30,32.20
9.9375,-6.81,-11.12,-19.51,-20.36,-14.59,-11.21,-7.16,-3.75,8.27,12.82,26.66,26.49,33.83,27.71
9.9453,-16.78,-18.25,-21.63,-21.36,-7.59,-4.93,3.65,9.97,21.02,22.90,27.63,30.66,22.64,17.38
9.9531,-15.81,-16.33,-16.06,-9.57,4.44,7.47,11.93,9.66,27.34,27.80,26.31,22.40,13.74,4.52
9.9609,-10.92,-17.06,-7.53,0.75,9.98,15.31,18.38,13.30,20.83,15.90,10.72,2.18,-4.67,-8.71
9.9688,-12.74,-12.41,-11.00,-2.47,5.51,15.06,14.69,7.52,13.64,8.31,12.85,-6.19,-10.36,-12.74
9.9766,-21.84,-20.14,-13.80,-1.96,4.99,13.94,7.61,11.59,8.79,0.47,-4.78,-4.07,-0.76,-7.78
9.9844,-30.36,-18.73,-5.58,4.67,15.40,17.06,10.74,9.35,7.01,-1.91,-3.74,-6.65,-4.99,3.38
9.9922,-21.37,-1.71,13.27,25.03,21.28,18.78,12.17,6.53,6.06,-3.14,-6.68,0.42,1.98,6.15
10.0000,-0.28,18.26,28.64,32.99,20.73,18.54,11.92,0.87,-10.12,-5.16,-6.32,0.31,-2.35,7.02
10.0078,21.21,36.84,38.51,38.53,19.60,8.56,-1.66,-9.46,-16.13,-14.78,-10.57,2.51,9.30,13.21
10.0156,31.08,33.87,34.65,19.37,9.62,-5.67,-13.08,-10.63,-17.43,-11.72,-0.84,11.07,19.38,15.58
10.0234,25.11,19.75,12.79,0.49,-2.75,-8.70,-14.66,-12.01,-13.63,5.48,14.29,20.00,26.79,21.85
10.0313,12.96,9.23,-0.61,-7.46,-5.90,-10.73,-7.94,1.74,3.24,17.21,31.64,32.08,31.90,16.76
10.0391,11.83,9.17,2.65,-11.87,-4.18,-4.60,3.86,10.92,17.42,25.10,35.49,28.07,17.13,6.39
10.0469,18.31,7.62,-0.72,-4.73,-0.57,-1.47,-9.22,15.89,22.22,28.50,29.00,17.15,3.26,-9.52
10.0547,12.43,8.62,0.95,-8.79,0.16,3.89,8.15,13.65,22.28,24.16,15.22,7.98,-10.21,-19.42
10.0625,-0.75,-8.25,-8.83,-9.41,-5.24,1.26,11.68,15.91,23.54,19.27,9.81,-6.63,-15.84,-23.21
10.0703,-10.46,-17.15,-21.04,-14.01,-2.16,7.12,12.07,18.24,25.24,12.90,5.36,-6.08,-15.55,-20.04
10.0781,-20.65,-14.37,-14.46,-2.42,10.92,13.89,22.78,20.85,23.76,8.15,-5.48,-16.11,-17.50,-21.96
10.0859,-14.25,-1.74,2.39,18.37,21.02,15.87,23.11,21.70,13.23,-2.90,-16.56,-18.84,-25.60,-22.00
10.0938,8.42,17.34,23.33,32.17,21.60,26.72,22.44,13.74,-2.92,-15.43,-22.96,-24.94,-27.61,-18.08
10.1016,18.70,24.50,30.54,30.96,20.27,16.27,5.27,0.87,-13.55,-25.23,-28.85,-25.10,-16.56,-6.92
10.1094,22.68,22.81,19.83,17.86,8.70,4.45,-4.25,-11.88,-25.02,-29.18,-19.72,-18.23,-5.83,5.87
10.1172,18.87,18.95,13.90,2.38,-1.48,-0.20,-4.94,-9.54,-19.50,-16.02,-13.20,-0.48,11.22,17.02
10.1250,12.51,12.08,4.95,4.00,2.37,1.32,-3.72,-4.66,-12.60,-1.60,1.33,8.56,20.27,19.26
10.1328,18.47,14.31,5.68,4.22,2.81,3.71,1.39,4.13,-3.58,7.33,12.55,10.16,13.88,12.65
10.1406,21.89,10.35,2.74,0.21,4.02,5.08,-1.77,0.92,3.06,4.62,11.15,5.36,1.82,1.41
10.1484,10.90,1.76,-0.41,-9.65,-0.43,-1.46,-3.51,-0.37,6.58,5.43,7.92,0.04,-5.55,-6.93
10.1563,0.55,-10.55,-17.86,-15.96,-7.72,-5.57,1.51,-3.55,9.68,9.54,5.99,2.16,-4.28,-15.84
10.1641,-20.21,-25.45,-19.75,-17.62,0.72,-0.88,1.97,1.95,13.38,8.09,2.51,-4.09,-10.12,-17.31
10.1719,-30.05,-19.94,-14.83,-4.03,7.85,13.34,8.23,5.58,11.23,6.01,-4.18,-13.82,-17.15,-20.09
10.1797,-22.45,-11.47,1.12,14.18,20.85,17.60,15.40,10.73,5.01,-6.23,-12.93,-22.00,-26.99,-27.91
